power (mW)	FWHM	peak value	peak location
18.114275	52.344113	172.332778	0.000000
18.255880	32.801159	177.187222	0.000000
18.359120	21.041178	172.332778	0.000000
18.103946	144.674014	152.915000	0.000000
18.170271	144.674014	152.915000	0.000000
18.277737	72.810308	145.633333	0.000000
18.079526	105.691672	150.487778	0.000000
17.906279	61.929039	179.614444	0.000000
17.878671	59.181184	160.196667	0.000000
17.871384	78.261715	160.196667	0.000000
17.874783	87.414234	160.196667	0.000000
17.859730	6.639561	881.081667	566.148836
17.922513	8.737351	677.195000	566.148836
17.990921	6.292074	614.087222	566.148836
18.016865	4.893226	686.903889	565.799385
18.067036	6.290503	771.856667	565.799385
17.815809	5.591559	633.505000	565.799385
17.779043	5.591559	645.641111	566.148836
18.443758	6.992064	648.068333	565.799385
18.392694	5.591559	643.213889	566.148836
18.321723	7.340293	626.223333	565.799385
18.031300	6.292074	577.678889	565.799385
18.073415	5.941402	533.988889	565.799385
18.101090	6.640390	684.476667	565.799385
18.181233	9.780328	529.134444	565.799385
18.153481	6.287359	638.359444	565.799385
18.094027	6.641219	524.280000	566.148836
18.290013	5.242414	718.457778	565.799385
18.305001	8.038364	672.340556	565.799385
18.303827	5.939176	560.688333	566.148836
18.074112	4.193670	711.176111	566.148836
17.946523	5.939918	388.355556	566.148836
18.133634	44.522450	203.886667	0.000000
18.152508	28.690340	186.896111	0.000000
17.847447	67.783559	152.915000	0.000000
17.979057	41.324012	167.478333	0.000000
17.844325	145.241260	150.487778	0.000000
17.920788	97.263083	155.342222	0.000000
18.265179	79.193722	172.332778	0.000000
18.207667	96.971958	143.206111	0.000000
18.376813	91.399565	174.760000	0.000000
18.252693	102.978871	152.915000	0.000000
17.929105	103.927810	157.769444	0.000000
17.972606	78.838407	150.487778	0.000000
18.158337	45.489031	167.478333	0.000000
18.009723	64.199905	138.351667	0.000000
18.120796	6.637901	1300.991111	566.498243
18.163265	6.638731	973.316111	566.148836
18.342191	6.638731	973.316111	566.148836
18.437374	7.340293	919.917222	565.799385
18.406293	6.289718	1038.851111	566.148836
18.375492	7.337544	1046.132778	566.148836
18.403654	6.290503	1152.930556	566.148836
18.421975	5.939918	1182.057222	566.148836
18.364875	5.591559	1160.212222	566.148836
18.305274	6.638731	1109.240556	566.148836
18.430925	6.989447	1029.142222	565.799385
18.603888	5.590162	1060.696111	566.498243
18.485106	7.341209	1174.775556	565.100353
18.610687	8.038364	1004.870000	565.799385
18.414345	115.098583	140.778889	0.000000
18.450279	115.098583	140.778889	0.000000
18.458744	67.858426	148.060556	0.000000
18.629768	89.346716	155.342222	0.000000
18.776155	101.184845	150.487778	0.000000
18.703444	143.179599	148.060556	0.000000
18.711001	141.875326	145.633333	0.000000
18.858852	81.641099	228.158889	0.000000
18.811732	47.558210	189.323333	0.000000
19.111321	18.422173	174.760000	0.000000
19.126860	78.261715	155.342222	0.000000
18.878141	144.577767	160.196667	0.000000
18.915813	155.549044	148.060556	0.000000
18.522154	155.549044	148.060556	0.000000
18.563090	26.836588	160.196667	0.000000
18.601945	7.338461	1143.221667	566.148836
18.693729	5.939918	1759.736111	566.148836
18.782672	6.639561	1478.178333	566.148836
18.617695	6.988574	1332.545000	566.148836
18.664596	6.290503	1116.522222	566.148836
18.680064	6.289718	1572.840000	566.498243
18.724192	6.987701	1337.399444	566.148836
18.867241	6.987701	1220.892778	566.148836
18.682426	6.289718	1118.949444	566.148836
18.541303	6.289718	1242.737778	566.148836
18.719188	5.240450	1332.545000	566.498243
18.664458	4.891392	633.505000	566.148836
18.721969	67.031123	165.051111	0.000000
18.477125	84.156802	152.915000	0.000000
18.539568	105.498493	169.905556	0.000000
18.199057	63.683204	160.196667	0.000000
18.503354	40.297975	150.487778	0.000000
18.406435	143.274756	148.060556	0.000000
18.374446	71.654283	135.924444	0.000000
18.335875	40.525388	135.924444	0.000000
18.589937	122.193233	135.924444	0.000000
18.524379	12.629424	169.905556	0.000000
18.641082	4.541724	1752.454444	566.847607
18.504118	4.891392	3335.003333	566.498243
18.487532	4.541724	3182.088333	566.498243
18.729528	3.842997	3747.631111	566.498243
18.739592	3.842997	3747.631111	566.498243
18.330541	4.192622	3393.256667	566.498243
18.424329	4.891392	2274.307222	566.498243
18.768101	5.590861	2179.645556	566.148836
18.760541	4.541724	2956.356667	566.498243
18.651688	4.541724	2956.356667	566.498243
18.434741	4.192622	2228.190000	566.498243
18.549630	4.192622	2361.687222	566.498243
