power (mW)	FWHM	peak value	peak location
24.228907	160.130031	133.497222	0.000000
24.134831	135.159092	138.351667	0.000000
24.310988	41.788281	148.060556	0.000000
24.231959	4.193146	4614.149444	566.148836
24.214618	4.193670	8585.085000	565.799385
24.342065	4.542859	8439.451667	565.799385
24.150306	4.194194	7922.453333	565.449891
24.574826	4.892615	8898.196667	565.799385
24.442449	4.543426	7281.666667	565.799385
24.761450	4.193146	10687.059444	566.148836
24.476929	4.193146	10267.150000	566.148836
24.841942	4.193670	9480.730000	565.799385
24.899718	4.193146	8815.671111	566.148836
24.829724	4.193146	8815.671111	566.148836
24.756182	4.542859	10276.858889	565.799385
24.967928	103.886068	167.478333	0.000000
25.029118	103.886068	167.478333	0.000000
24.795663	91.176189	135.924444	0.000000
24.781222	142.705571	186.896111	0.000000
24.618327	50.376431	131.070000	0.000000
24.623324	39.424563	191.750556	0.000000
24.890299	49.295391	143.206111	0.000000
25.179191	78.282059	145.633333	0.000000
25.321410	117.134421	162.623889	0.000000
25.366789	74.804704	116.506667	0.000000
24.841516	117.904093	194.177778	0.000000
24.850330	65.223676	160.196667	0.000000
25.106973	101.103676	148.060556	0.000000
25.086642	3.144664	8621.493333	566.148836
24.883074	4.193146	10235.596111	566.148836
24.953209	4.193146	10235.596111	566.148836
24.855876	4.193146	7140.887778	566.148836
24.936287	3.843958	9808.405000	565.799385
25.030437	3.145057	12517.185000	566.148836
24.972308	3.494725	9869.085556	565.799385
24.907981	3.494289	7822.937222	566.148836
25.010043	3.843958	9325.387778	565.799385
25.385165	3.494289	11672.511667	566.148836
25.484937	3.494289	9070.529444	566.148836
25.614884	3.843958	8072.941111	566.148836
25.400496	4.193670	6512.237222	565.799385
25.119793	4.193670	6512.237222	565.799385
24.981460	3.145057	10422.492222	565.799385
24.658702	47.305683	157.769444	0.000000
25.130897	76.153495	150.487778	0.000000
24.855531	131.195036	152.915000	0.000000
25.023840	129.494688	128.642778	0.000000
25.109669	134.663327	172.332778	0.000000
25.021907	23.898521	143.206111	0.000000
25.230250	103.581348	131.070000	0.000000
25.127915	145.690940	135.924444	0.000000
24.763465	8.020748	177.187222	0.000000
24.877874	77.055007	152.915000	0.000000
25.075951	123.560764	128.642778	0.000000
25.279649	148.555758	138.351667	0.000000
25.264381	118.126823	143.206111	0.000000
24.874066	162.067794	160.196667	0.000000
25.172386	4.193146	20286.723333	566.148836
25.095717	4.542859	9740.442778	566.148836
24.784494	3.843958	12310.871111	566.148836
24.705257	3.843958	9235.580556	565.799385
24.806825	3.843958	9509.856667	565.799385
24.972230	3.494725	8060.805000	565.799385
24.895144	4.543426	7121.470000	565.799385
25.041751	3.494289	9021.985000	566.148836
25.129367	3.494289	9021.985000	566.148836
24.959185	4.193670	5927.276667	565.799385
24.504344	2.795781	9594.809444	565.799385
24.378901	3.843958	7495.262222	566.148836
25.020726	96.620283	160.196667	0.000000
24.903335	31.473302	145.633333	0.000000
24.782062	153.764885	162.623889	0.000000
24.550478	125.016671	148.060556	0.000000
24.506630	41.209644	157.769444	0.000000
24.961758	24.186793	150.487778	0.000000
24.665227	90.037115	150.487778	0.000000
24.064406	112.770601	150.487778	0.000000
24.214340	44.607812	152.915000	0.000000
24.639009	4.193146	8563.240000	566.148836
24.840202	4.193146	8563.240000	566.148836
24.966879	4.542859	7390.891667	565.799385
25.156428	4.542859	7553.515556	565.799385
24.600772	4.193670	8738.000000	565.799385
24.521268	4.892615	7582.642222	565.799385
25.282495	4.542859	6871.466111	565.799385
25.089341	4.542859	6970.982222	565.799385
25.168777	4.193146	10665.214444	566.148836
25.112931	4.542859	11434.643889	565.799385
25.334114	4.193146	10951.626667	566.148836
25.177169	91.723293	143.206111	0.000000
24.952181	80.607235	160.196667	0.000000
25.057018	112.692690	140.778889	0.000000
25.048886	147.159801	191.750556	0.000000
24.799334	10.693902	174.760000	0.000000
25.389957	101.961213	157.769444	0.000000
25.667064	44.262126	155.342222	0.000000
25.607802	125.651547	128.642778	0.000000
25.765860	115.197607	145.633333	0.000000
25.539193	3.843478	22607.147778	566.498243
25.890594	3.843958	11932.224444	566.148836
25.463919	4.193146	7856.918333	566.148836
25.582349	4.892615	5987.957222	565.799385
24.895975	3.843958	10514.726667	566.148836
25.190976	4.542859	7621.477778	565.799385
25.073250	4.892615	7876.336111	565.799385
