power (mW)	FWHM	peak value	peak location
25.757322	113.211531	140.778889	0.000000
26.072996	56.058162	138.351667	0.000000
26.174010	139.375112	128.642778	0.000000
26.320742	67.745330	121.361111	0.000000
25.859928	116.643047	152.915000	0.000000
25.947066	4.546260	1582.548889	564.051477
25.492020	4.895057	1805.853333	564.750771
25.561465	4.895057	1252.446667	564.401146
25.900172	4.894447	1342.253889	564.401146
26.036915	3.146627	1730.609444	564.750771
25.875953	5.943626	1208.756667	564.401146
26.203918	4.195240	1461.187778	564.750771
26.145558	4.195240	1461.187778	564.750771
26.141812	5.245030	1257.301111	564.401146
25.816852	5.244377	1364.098889	564.401146
26.180045	4.545693	1621.384444	564.401146
26.107819	4.195240	1211.183889	564.750771
25.983225	4.195240	1541.286111	564.750771
25.911892	4.195240	1541.286111	564.750771
26.101439	5.244377	1737.891111	564.750771
25.923482	34.544033	131.070000	0.000000
25.888856	20.293761	143.206111	0.000000
26.055648	55.518455	184.468889	0.000000
25.924524	68.975450	123.788333	0.000000
25.670870	65.390875	145.633333	0.000000
25.827670	127.823907	150.487778	0.000000
26.085753	115.802624	145.633333	0.000000
25.856745	111.652007	150.487778	0.000000
25.720408	68.036602	145.633333	0.000000
26.224380	5.595047	825.255556	564.401146
26.267608	5.943626	1252.446667	564.401146
26.202386	4.895057	1296.136667	564.401146
26.037819	4.895057	1296.136667	564.401146
26.127038	6.293643	992.733889	564.750771
25.995499	4.894447	1002.442778	564.750771
26.333089	5.593653	1121.376667	564.750771
26.535133	5.593653	871.372778	564.750771
26.548032	5.592955	1012.151667	565.100353
26.263231	5.243069	1228.174444	565.100353
26.575709	4.544560	861.663889	564.750771
26.538388	6.292858	861.663889	564.750771
26.688045	5.943626	1126.231111	564.750771
26.505299	5.593653	1191.766111	564.750771
26.418847	4.893836	1145.648889	565.100353
26.748882	4.893836	890.790556	564.750771
26.343223	126.453163	118.933889	0.000000
25.868323	27.884647	138.351667	0.000000
25.913210	40.155222	145.633333	0.000000
25.729717	132.178738	140.778889	0.000000
25.679683	120.801321	140.778889	0.000000
25.746427	46.464001	148.060556	0.000000
25.715067	26.352164	116.506667	0.000000
26.090267	136.061505	133.497222	0.000000
26.010267	5.245030	1075.259444	564.051477
26.039832	6.643703	750.011667	564.051477
26.133568	6.293643	983.025000	564.051477
26.153326	5.245030	951.471111	564.051477
26.069171	5.245030	951.471111	564.051477
25.879082	6.294427	725.739444	564.401146
25.700441	4.895057	640.786667	564.401146
25.612040	5.592955	616.514444	564.750771
25.508733	4.545127	536.416111	564.401146
25.809694	5.945108	618.941667	564.401146
25.737404	4.545127	686.903889	564.401146
25.523164	5.595047	745.157222	564.401146
25.730737	5.943626	667.486111	564.401146
25.788129	5.944367	526.707222	564.750771
25.679819	5.943626	839.818889	564.401146
25.465507	6.293643	648.068333	564.750771
25.495959	8.039367	446.608889	564.750771
25.989185	57.114019	140.778889	0.000000
25.811986	3.877626	138.351667	0.000000
25.717567	95.964101	160.196667	0.000000
26.588754	150.123667	123.788333	0.000000
26.165823	48.832551	128.642778	0.000000
26.277448	112.017203	111.652222	0.000000
26.422453	27.719905	167.478333	0.000000
26.466994	87.105579	140.778889	0.000000
26.259345	140.824402	131.070000	0.000000
26.407190	125.354069	128.642778	0.000000
26.519929	125.354069	128.642778	0.000000
26.434520	75.550798	126.215556	0.000000
26.086877	5.943626	577.678889	564.401146
25.789789	4.894447	635.932222	564.401146
25.617932	5.943626	538.843333	564.401146
25.379270	5.943626	538.843333	564.401146
25.696345	6.989447	478.162778	564.401146
25.957133	6.989447	478.162778	564.401146
25.591089	5.594350	565.542778	564.750771
25.389746	5.943626	487.871667	564.750771
25.129447	5.945108	427.191111	564.750771
24.671967	6.289718	432.045556	564.401146
24.848179	5.245030	473.308333	564.750771
25.257102	4.196286	529.134444	564.051477
24.760553	5.595047	560.688333	564.051477
25.074980	4.195763	293.693889	0.000000
25.476407	90.825179	150.487778	0.000000
25.120005	40.746204	182.041667	0.000000
25.352423	3.507749	150.487778	0.000000
25.166897	97.380452	140.778889	0.000000
25.121808	97.380452	140.778889	0.000000
25.478837	82.542078	138.351667	0.000000
25.536287	128.916876	126.215556	0.000000
25.577348	147.310239	135.924444	0.000000
26.116567	31.600419	116.506667	0.000000
26.331704	84.957450	128.642778	0.000000
