power (mW)	FWHM	peak value	peak location
28.359092	66.019698	621.368889	0.000000
28.331969	3.147803	56309.128333	563.701765
28.617589	3.147803	60158.702778	563.701765
28.600387	3.497341	53995.985556	563.701765
28.437482	3.147411	49374.554444	563.701765
28.524491	3.147411	52051.780556	563.701765
28.237055	3.147803	22898.414444	563.701765
28.135001	84.972017	648.068333	0.000000
27.994096	17.767665	558.261111	0.000000
28.289725	73.416599	660.204444	0.000000
28.060550	127.972573	529.134444	0.000000
28.269797	3.847314	62702.431667	563.701765
28.343689	3.497341	60209.674444	563.701765
28.801737	3.497341	58117.408889	563.701765
28.603234	3.497341	58539.745556	563.701765
27.910904	3.497341	54918.330000	563.701765
28.531217	3.147411	58331.004444	563.701765
28.305317	3.147411	56156.213333	563.701765
27.603201	2.797873	38357.392778	563.701765
27.436913	17.767665	560.688333	0.000000
28.599142	63.970725	589.815000	0.000000
27.791087	17.767665	614.087222	0.000000
27.581840	3.147803	35078.215556	563.701765
28.093515	3.497341	55088.235556	563.701765
27.709717	3.497341	53352.771667	563.701765
27.892811	3.147411	54432.885556	563.701765
28.047097	3.147411	53964.431667	563.701765
28.513598	3.147411	52338.192778	564.051477
28.044106	3.147411	54508.129444	563.701765
28.204992	3.147411	44748.268889	564.051477
28.642991	30.042304	599.523889	0.000000
28.528785	134.502126	703.894444	0.000000
28.350625	3.497776	39551.586111	563.352009
27.940316	3.847314	29951.922222	563.352009
28.018313	3.497341	33481.103333	563.701765
27.970083	3.497341	34063.636667	563.701765
28.140625	3.497341	32927.696667	563.701765
28.186615	3.497341	34592.771111	563.701765
28.352223	4.196809	9762.287778	563.701765
27.802258	26.533238	684.476667	0.000000
28.033366	118.454127	553.406667	0.000000
27.750917	31.418679	548.552222	0.000000
28.384822	3.497776	20806.148889	563.352009
27.631803	3.847314	37143.781667	563.352009
26.876814	3.497341	33335.470000	563.701765
27.553597	3.847314	31153.397222	563.701765
27.125466	3.497341	33194.691111	563.701765
27.350116	3.497341	30299.015000	563.701765
28.013660	3.846835	30039.302222	563.701765
27.643934	3.497341	28930.061667	563.701765
28.157962	3.846835	14262.357778	563.701765
28.104195	16.085684	645.641111	0.000000
28.164549	66.019698	609.232778	0.000000
28.538715	3.497341	34422.865556	563.701765
28.307611	3.497341	30731.060556	563.701765
28.014075	3.147411	33942.275556	563.701765
28.209862	2.797873	34163.152778	563.701765
27.954060	2.797873	33990.820000	563.701765
27.751548	2.797873	32874.297778	563.701765
27.992356	14.068891	597.096667	0.000000
27.951211	103.354933	633.505000	0.000000
28.128829	107.278626	558.261111	0.000000
27.627153	3.497341	12293.880556	563.701765
27.976888	3.147803	25900.888333	563.352009
28.886305	3.147803	28650.931111	563.701765
28.837527	3.147803	26104.775000	563.701765
27.873922	3.147803	25478.551667	563.701765
28.509786	3.497776	23578.036667	563.352009
27.815856	3.497776	21908.107778	563.352009
27.529673	3.847314	21908.107778	563.701765
28.000891	3.497776	3216.069444	563.352009
27.997277	31.943425	589.815000	0.000000
27.679529	8.397886	567.970000	0.000000
27.599038	3.847314	3606.852222	563.352009
28.272653	3.847314	24502.808333	563.352009
28.384411	3.847314	20109.536111	563.352009
27.668637	4.546826	17791.538889	563.701765
27.866695	4.546826	17747.848889	563.352009
27.738501	4.546826	18318.246111	563.701765
28.015466	4.546826	18121.641111	563.701765
27.974456	4.546826	17429.882778	563.701765
27.701036	56.780088	587.387778	0.000000
27.428233	63.135979	631.077778	0.000000
27.927147	65.685767	548.552222	0.000000
27.686533	14.068891	621.368889	0.000000
28.072693	14.777067	601.951111	0.000000
27.718869	4.196809	18847.380556	563.701765
27.404313	4.196809	18218.730000	563.701765
27.012453	4.196809	18459.025000	563.701765
27.063790	3.846835	19808.560556	563.701765
26.942174	3.846835	19196.900556	563.701765
27.216418	3.846835	21628.977222	563.701765
27.802326	3.496905	14738.093333	564.051477
27.984442	30.705401	609.232778	0.000000
27.808513	86.009210	611.660000	0.000000
27.985691	16.085684	541.270556	0.000000
27.823624	35.669955	665.058889	0.000000
27.788450	3.496905	16242.971111	563.701765
27.767495	3.496905	18687.183889	564.051477
27.940450	3.496905	19813.415000	564.051477
28.472595	3.496905	20429.929444	564.051477
27.861302	3.147411	20830.421111	564.051477
28.284307	3.147411	20786.731111	564.051477
28.202776	3.496905	21189.650000	564.051477
28.536287	3.496905	21381.400556	563.701765
