power (mW)	FWHM	peak value	peak location
0.302233	70.982584	83.739167	0.000000
0.299676	105.733207	95.875278	0.000000
0.300796	82.216616	137.138056	0.000000
0.304141	112.627119	137.138056	0.000000
0.307194	67.621703	122.574722	0.000000
0.309814	138.206536	108.011389	0.000000
0.343444	71.371186	98.302500	0.000000
0.345148	105.369548	105.584167	0.000000
0.344970	130.371255	82.525556	0.000000
0.348583	126.159013	95.875278	0.000000
0.353492	31.854193	93.448056	0.000000
0.347095	96.717554	100.729722	0.000000
0.328270	56.258942	89.807222	0.000000
0.327939	73.849886	111.652222	0.000000
0.271401	122.165664	82.525556	0.000000
0.256469	79.522430	115.293056	0.000000
0.255807	76.523888	111.652222	0.000000
0.255146	94.926544	104.370556	0.000000
0.261276	75.929465	106.797778	0.000000
0.258987	49.760727	106.797778	0.000000
0.285914	83.036948	76.457500	0.000000
0.323309	82.188769	86.166389	0.000000
0.315665	56.207252	95.875278	0.000000
0.332594	51.231199	105.584167	0.000000
0.336232	5.633017	93.448056	0.000000
0.343190	134.186033	108.011389	0.000000
0.364571	82.703849	105.584167	0.000000
0.367039	28.530400	86.166389	0.000000
0.377913	97.097699	94.661667	0.000000
0.455859	80.715429	114.079444	0.000000
0.472228	8.967140	117.720278	0.000000
0.504230	8.967140	117.720278	0.000000
0.532684	88.362363	94.661667	0.000000
0.555872	81.970434	95.875278	0.000000
0.649702	117.358499	94.661667	0.000000
0.642859	116.512334	98.302500	0.000000
0.639070	22.335300	115.293056	0.000000
0.632150	75.639518	101.943333	0.000000
0.654549	6.993807	138.351667	0.000000
0.657525	4.897496	428.404722	563.352009
0.687441	4.197331	712.389722	563.352009
0.670168	3.497776	567.970000	563.352009
0.685394	3.847793	1230.601667	563.002209
0.730662	3.847793	1328.904167	563.002209
0.735749	3.847793	1328.904167	563.002209
0.737034	4.197854	2097.120000	563.002209
0.797426	3.847793	1339.826667	563.002209
0.829708	3.498212	1950.273056	563.002209
0.831323	3.847793	2051.002778	563.352009
0.853405	3.847793	3186.942778	563.352009
0.868019	3.847793	4302.251389	563.352009
0.901445	3.847793	3629.910833	563.352009
0.937289	3.847793	6545.004722	563.352009
0.962156	3.497776	6004.947778	563.352009
0.960197	3.497776	6004.947778	563.352009
0.997478	3.847793	6744.036944	563.352009
1.020970	3.847793	9138.491667	563.352009
1.040800	3.847793	11003.811944	563.352009
1.054054	3.148195	13806.040000	563.352009
1.141919	3.148195	13370.353611	563.352009
1.142022	3.847793	18438.393611	563.002209
1.146409	3.847793	15037.855278	563.002209
1.149653	3.498212	18552.473056	563.002209
1.191500	3.148195	22561.030556	563.352009
1.200264	3.847793	20568.281111	563.352009
1.208035	3.148195	18926.265278	563.352009
1.222281	3.497776	20201.770556	563.352009
1.237010	3.498212	23669.057500	563.002209
1.266582	3.847793	25980.986667	563.002209
1.256204	3.847793	25980.986667	563.002209
1.285585	3.498212	30154.595278	563.002209
1.341029	3.498212	34284.513889	563.002209
1.367155	3.148195	34291.795556	563.352009
1.393280	3.498212	40824.664167	563.002209
1.379314	3.148195	25580.495000	563.352009
1.446091	3.497776	45813.819444	563.352009
1.469101	3.148195	38745.748333	563.002209
1.491298	3.498212	40569.805833	563.002209
1.508303	3.498212	42395.076944	563.002209
1.507857	3.498212	39845.280000	563.002209
1.522726	3.498212	42058.906667	563.002209
1.514091	3.148195	47863.608611	563.002209
1.551486	3.498212	48004.387500	563.002209
1.547021	3.498212	42433.912500	563.002209
1.551281	3.498212	46716.746111	563.002209
1.572727	3.148195	49506.838056	563.002209
1.566315	3.148195	50480.154167	563.002209
1.598801	3.498212	50387.919722	563.002209
1.576034	3.498212	46719.173333	563.002209
1.625386	3.847793	51493.519444	563.002209
1.614509	3.498212	50103.934722	563.002209
1.647441	3.498212	51417.061944	563.002209
1.632292	3.148195	50021.409167	563.352009
1.681999	3.498212	53252.041944	563.002209
1.671366	3.498212	56913.506667	563.002209
1.689326	3.498212	52480.185278	563.002209
1.696780	3.498212	53868.556389	563.002209
1.703801	3.498212	50369.715556	563.002209
1.689135	3.498212	50874.577778	563.002209
1.772309	3.848272	57088.266667	563.002209
1.780766	3.498212	52584.555833	563.002209
1.764611	3.498212	53771.467500	563.002209
1.746157	3.498212	50298.112500	563.002209
1.731440	3.498212	52069.984722	563.002209
1.776926	3.498212	50525.057778	563.002209
