power (mW)	FWHM	peak value	peak location
0.258084	52.223580	116.506667	0.000000
0.254853	49.003677	137.138056	0.000000
0.247107	49.003677	137.138056	0.000000
0.241549	77.938679	135.924444	0.000000
0.254738	65.654466	112.865833	0.000000
0.342210	83.051242	122.574722	0.000000
0.336601	38.221881	132.283611	0.000000
0.309356	38.221881	132.283611	0.000000
0.264469	66.561274	104.370556	0.000000
0.247361	66.561274	104.370556	0.000000
0.232378	64.768138	141.992500	0.000000
0.194538	145.163646	132.283611	0.000000
0.170651	133.512033	131.070000	0.000000
0.032975	12.987421	117.720278	0.000000
0.016427	44.452469	125.001944	0.000000
-0.023334	108.772189	131.070000	0.000000
-0.031830	24.299475	117.720278	0.000000
-0.031169	77.421159	120.147500	0.000000
-0.027060	46.575992	112.865833	0.000000
-0.012815	48.578029	110.438611	0.000000
-0.006837	156.605555	117.720278	0.000000
0.027404	61.561610	121.361111	0.000000
0.053924	132.409039	141.992500	0.000000
0.063769	52.841951	112.865833	0.000000
0.074364	79.577532	141.992500	0.000000
0.098811	31.428484	117.720278	0.000000
0.191561	85.096257	145.633333	0.000000
0.276171	132.283226	118.933889	0.000000
0.303594	70.610680	122.574722	0.000000
0.304268	3.147411	327.675000	0.000000
0.311264	3.497341	507.289444	563.701765
0.291002	3.496905	464.813056	564.051477
0.296802	3.496905	264.567222	0.000000
0.304408	3.497341	500.007778	563.701765
0.309063	3.847314	570.397222	563.701765
0.314762	3.497341	892.004167	563.701765
0.348163	3.497341	1711.191667	563.701765
0.365283	3.497341	1972.118056	563.701765
0.382747	3.497341	1822.843889	563.701765
0.447362	3.497341	2274.307222	563.701765
0.447426	3.497341	3797.389167	563.701765
0.472356	3.497341	3668.746389	563.701765
0.475701	3.147411	3984.285278	563.701765
0.476019	3.497341	4485.506667	563.701765
0.466301	3.147803	3743.990278	563.701765
0.497883	2.797873	6990.400000	563.701765
0.538510	3.497341	8347.217222	563.701765
0.561315	3.497341	7637.254722	563.701765
0.576630	3.497341	10501.376944	563.701765
0.632188	3.497341	8429.742778	563.701765
0.662180	2.797873	10047.486389	563.701765
0.679377	2.797873	10047.486389	563.701765
0.681488	3.497341	9688.257500	563.701765
0.697147	3.497341	8259.837222	563.701765
0.700746	3.497341	10151.856944	563.701765
0.746180	3.147803	11867.903056	563.701765
0.756890	3.147803	11867.903056	563.701765
0.771987	2.797873	12585.147222	563.701765
0.804333	3.497341	13483.219444	563.701765
0.842059	3.147803	13494.141944	563.701765
0.865475	3.497341	12475.922222	563.701765
0.900619	3.147803	14891.008333	563.701765
0.950759	3.147803	13927.401111	563.701765
0.960477	3.147803	13590.017222	563.701765
1.028030	3.847314	13491.714722	563.701765
1.030649	3.147803	13813.321667	563.701765
1.060643	3.147803	13099.718333	563.701765
1.114826	3.497341	15622.815833	563.701765
1.121364	3.147803	15337.617222	563.701765
1.158099	3.497341	15814.566389	563.701765
1.210159	3.147803	19281.853333	563.701765
1.219126	3.497341	14563.333333	563.701765
1.237786	3.147803	16593.704722	563.701765
1.244744	3.147803	16593.704722	563.701765
1.233830	3.497341	15377.666389	563.701765
1.227317	3.147803	15233.246667	563.701765
1.247695	3.147803	15233.246667	563.701765
1.267829	3.147803	15624.029444	563.701765
1.282112	3.147803	17141.043333	563.352009
1.293853	3.147803	18570.677222	563.701765
1.347249	3.147803	19064.616944	563.352009
1.359841	3.147803	20472.405833	563.701765
1.337226	3.147803	18216.302778	563.352009
1.402834	3.147803	16418.944722	563.352009
1.396855	3.497776	14201.677222	563.352009
1.381858	3.147803	15302.422500	563.352009
1.367218	3.497776	13450.451944	563.352009
1.406993	3.147803	15318.199444	563.352009
1.420653	3.497776	14107.015556	563.352009
1.448407	3.497776	13488.073889	563.352009
1.439236	3.497776	13854.584444	563.352009
1.465298	3.497776	13344.867778	563.352009
1.437467	3.497776	13546.327222	563.352009
1.435586	3.497776	13225.933889	563.352009
1.466023	3.497776	13388.557778	563.352009
1.441195	3.497776	13473.510556	563.352009
1.511788	3.497776	14642.218056	563.352009
1.481822	3.497776	12750.198333	563.352009
1.472371	3.497776	12293.880556	563.352009
1.493841	3.497776	13054.814722	563.352009
1.516290	3.497776	11301.146667	563.352009
1.516392	3.497776	10888.518889	563.352009
1.531261	3.497776	10110.594167	563.352009
1.517384	3.148195	10980.753333	563.352009
1.579352	3.497776	10559.630278	563.352009
1.550772	3.497776	10048.700000	563.352009
1.457234	3.497776	9293.833889	563.352009
1.461558	3.497776	9980.737778	563.352009
