power (mW)	FWHM	peak value	peak location
0.459713	44.831400	88.593611	0.000000
0.457143	66.310854	103.156944	0.000000
0.476654	97.110170	111.652222	0.000000
0.474365	78.788000	91.020833	0.000000
0.482302	113.756749	92.234444	0.000000
0.473284	67.663893	109.225000	0.000000
0.481552	51.757494	89.807222	0.000000
0.479275	22.165034	108.011389	0.000000
0.481475	22.165034	108.011389	0.000000
0.480903	46.107160	106.797778	0.000000
0.478105	125.513759	115.293056	0.000000
0.476388	71.998002	101.943333	0.000000
0.487886	83.316553	108.011389	0.000000
0.492948	109.440413	108.011389	0.000000
0.521834	9.962746	103.156944	0.000000
0.528932	121.392811	98.302500	0.000000
0.522979	21.800681	99.516111	0.000000
0.514457	94.088580	98.302500	0.000000
0.511798	94.088580	98.302500	0.000000
0.521758	53.546227	100.729722	0.000000
0.522521	84.432664	94.661667	0.000000
0.520766	36.782031	106.797778	0.000000
0.530433	72.794272	114.079444	0.000000
0.560959	83.564357	95.875278	0.000000
0.574162	95.940563	121.361111	0.000000
0.606711	75.920424	151.701389	0.000000
0.615691	47.638351	93.448056	0.000000
0.610514	50.541424	84.952778	0.000000
0.627825	78.969064	121.361111	0.000000
0.642681	6.275529	103.156944	0.000000
0.658606	92.318611	95.875278	0.000000
0.692720	76.471086	112.865833	0.000000
0.701128	52.300566	123.788333	0.000000
0.703709	85.663434	101.943333	0.000000
0.709318	19.716785	112.865833	0.000000
0.741003	139.393834	111.652222	0.000000
0.754637	53.977139	105.584167	0.000000
0.786844	86.903524	99.516111	0.000000
0.813847	110.962522	104.370556	0.000000
0.821962	38.199047	122.574722	0.000000
0.827533	28.541260	131.070000	0.000000
0.840914	17.477914	154.128611	0.000000
0.867549	104.529764	117.720278	0.000000
0.871160	18.807497	138.351667	0.000000
0.937442	38.415113	125.001944	0.000000
0.938193	16.726245	137.138056	0.000000
0.993866	24.438394	167.478333	0.000000
0.990863	36.548767	116.506667	0.000000
0.987404	11.135343	127.429167	0.000000
1.028055	17.077938	148.060556	0.000000
1.038752	120.200705	120.147500	0.000000
1.125740	58.463418	194.177778	0.000000
1.134797	14.668630	151.701389	0.000000
1.132024	6.990320	419.909444	565.100353
1.137697	71.817466	155.342222	0.000000
1.174596	26.789079	173.546389	0.000000
1.185815	38.651860	173.546389	0.000000
1.221670	5.593653	997.588333	564.750771
1.221136	5.244377	1010.938056	564.750771
1.265731	5.244377	584.960556	564.750771
1.260452	5.244377	793.701667	564.750771
1.261278	5.244377	2513.388611	564.401146
1.269546	4.894447	849.527778	564.750771
1.303254	4.894447	2480.621111	564.750771
1.310452	4.195763	4534.051111	564.401146
1.359905	4.195240	6350.826944	564.750771
1.364828	4.893836	1798.571667	565.100353
1.390712	4.894447	4816.822500	564.750771
1.407705	4.545127	10052.340833	564.750771
1.494108	4.545127	8262.264444	564.750771
1.503025	4.894447	5092.312222	564.750771
1.478094	4.545127	10763.516944	564.750771
1.466087	4.545127	10763.516944	564.750771
1.503507	3.845877	25858.411944	564.750771
1.540750	3.845877	13125.204167	564.750771
1.552948	3.845877	16458.993889	564.401146
1.604347	3.845877	24769.802778	564.401146
1.601982	3.845877	37231.161667	564.401146
1.606688	4.195763	24564.702500	564.401146
1.605466	3.845877	31593.938056	564.401146
1.591640	4.545127	18543.977778	564.401146
1.587494	4.195763	33271.148611	564.401146
1.581147	3.496470	34882.824167	564.401146
1.638092	3.845877	22130.198611	564.401146
1.659474	4.195763	32807.549167	564.401146
1.677663	4.195763	53537.240556	564.401146
1.700328	4.195763	60443.901389	564.401146
1.724965	4.195763	52474.117222	564.401146
1.729991	4.545693	61334.691944	564.401146
1.760644	4.195763	63033.747500	564.401146
1.750418	4.195763	62531.312500	564.401146
1.739695	4.545693	62485.195278	564.401146
1.744173	3.846356	63099.282500	564.401146
1.758202	4.195763	62862.628333	564.401146
1.762566	4.545693	63940.315000	564.401146
1.759080	4.195763	64884.504444	564.401146
1.779914	3.846356	58278.819167	564.401146
1.789301	4.195763	62180.578889	564.401146
1.788423	3.846356	63771.623056	564.401146
1.812818	4.195763	64019.199722	564.401146
1.805138	4.545693	64884.504444	564.401146
1.849082	5.245030	64884.504444	564.401146
1.871227	4.895057	64884.504444	564.401146
1.806485	4.196286	64884.504444	564.051477
1.788423	4.545693	64884.504444	564.051477
