power (mW)	FWHM	peak value	peak location
0.612702	123.856209	103.156944	0.000000
0.569901	77.832455	105.584167	0.000000
0.549003	77.832455	105.584167	0.000000
0.540303	87.127346	108.011389	0.000000
0.545200	65.223676	95.875278	0.000000
0.547502	74.546468	91.020833	0.000000
0.552564	10.007903	106.797778	0.000000
0.555146	16.491782	88.593611	0.000000
0.563643	39.932644	100.729722	0.000000
0.588980	159.949285	120.147500	0.000000
0.616785	107.940607	115.293056	0.000000
0.644996	83.316553	105.584167	0.000000
0.648939	56.237849	125.001944	0.000000
0.654090	117.855290	116.506667	0.000000
0.616429	136.340657	92.234444	0.000000
0.586729	141.883518	94.661667	0.000000
0.569596	77.205443	97.088889	0.000000
0.548761	27.663167	92.234444	0.000000
0.567611	160.943560	101.943333	0.000000
0.581094	95.127297	105.584167	0.000000
0.602272	127.109606	106.797778	0.000000
0.608720	46.450229	100.729722	0.000000
0.602017	100.323043	98.302500	0.000000
0.611201	106.377740	101.943333	0.000000
0.624645	74.537552	127.429167	0.000000
0.641003	10.760584	108.011389	0.000000
0.662294	30.149997	91.020833	0.000000
0.672636	132.283226	87.380000	0.000000
0.681883	124.468166	104.370556	0.000000
0.740277	124.468166	104.370556	0.000000
0.752629	81.227023	93.448056	0.000000
0.818604	85.096310	115.293056	0.000000
0.818412	12.577841	177.187222	0.000000
0.815195	12.577841	177.187222	0.000000
0.809636	17.193187	195.391389	0.000000
0.800606	3.499517	427.191111	561.952550
0.795658	1.749432	275.489722	0.000000
0.820054	2.449814	581.319722	561.952550
0.813007	2.449510	516.998333	561.952550
0.825574	2.799613	688.117500	561.952550
0.825968	3.499517	600.737500	561.952550
0.833130	3.149369	1275.505278	562.302480
0.861227	3.499517	1517.013889	561.952550
0.875333	3.149369	1379.875833	562.302480
0.893165	3.499517	2197.849722	561.952550
0.953621	3.149369	2354.405556	561.952550
0.959981	2.799266	2962.424722	562.302480
0.994718	2.799266	3611.706667	562.302480
1.000543	3.149369	3139.611944	562.302480
1.031528	3.149369	2736.693056	561.952550
1.031426	3.149369	2736.693056	561.952550
1.063339	2.799266	3850.788056	562.302480
1.099259	3.499517	3808.311667	561.952550
1.115412	3.149369	4163.899722	561.952550
1.139617	3.149369	5052.263056	561.952550
1.148330	3.149369	5455.181944	562.302480
1.171250	3.149369	6390.876111	562.302480
1.186743	2.799266	6861.757222	561.952550
1.218731	3.149369	4887.211944	561.952550
1.231655	2.799613	5939.412778	561.952550
1.261648	3.149369	6861.757222	561.952550
1.256203	3.149369	8824.166389	561.952550
1.277712	3.149369	9945.543056	561.952550
1.307806	3.149369	11126.386667	561.952550
1.343714	2.799613	12258.685833	561.952550
1.362920	2.799613	13131.272222	561.952550
1.363937	2.799613	12625.196389	561.952550
1.358124	3.149761	12349.706667	561.952550
1.367778	3.149761	13184.671111	561.952550
1.382787	3.149761	13768.418056	561.952550
1.406967	3.149761	15262.373333	561.602576
1.414586	2.799613	20256.383056	561.952550
1.487215	2.799613	17347.357222	561.952550
1.491565	3.149761	18120.427500	561.952550
1.481249	3.149761	17910.472778	561.602576
1.511851	3.149761	20154.439722	561.602576
1.527343	2.449814	20304.927500	561.602576
1.539922	3.149761	17369.202222	561.602576
1.530764	3.149761	19005.150000	561.602576
1.572065	3.150152	20678.719722	561.602576
1.592544	2.799961	20698.137500	561.602576
1.619648	2.799961	24073.190000	561.602576
1.623770	2.799961	20431.143056	561.602576
1.628514	3.150152	20797.653611	561.602576
1.631427	2.799961	20048.855556	561.602576
1.638321	3.150152	20547.649722	561.602576
1.649336	2.799961	20745.468333	561.602576
1.661891	2.799961	22131.412222	561.602576
1.685459	2.799961	23504.006389	561.602576
1.712703	2.799961	26495.557778	561.602576
1.728413	2.799961	24605.965278	561.602576
1.714650	2.799961	25176.362500	561.602576
1.733933	2.799961	23608.376944	561.602576
1.727090	3.150152	23348.664167	561.252560
1.741540	2.799961	24843.833056	561.602576
1.726455	3.150152	25320.782222	561.252560
1.726543	3.150152	24557.420833	561.252560
1.758266	2.800309	24399.651389	561.252560
1.703457	2.800309	22684.818889	561.252560
1.723962	2.800309	23557.405278	561.252560
1.722079	2.800309	20745.468333	561.252560
1.724699	2.800309	25042.865278	561.252560
1.736617	3.150152	22364.425556	561.252560
1.729151	2.800309	23862.021667	561.252560
1.805111	2.800309	26647.259167	561.252560
