power (mW)	FWHM	peak value	peak location
0.527113	129.664524	111.652222	0.000000
0.539031	128.165219	94.661667	0.000000
0.539921	92.710361	117.720278	0.000000
0.540773	108.840231	108.011389	0.000000
0.551979	103.057959	93.448056	0.000000
0.549067	61.672259	101.943333	0.000000
0.571478	45.833712	104.370556	0.000000
0.577698	82.949993	93.448056	0.000000
0.578626	32.009616	127.429167	0.000000
0.600593	103.856931	105.584167	0.000000
0.611277	133.942996	109.225000	0.000000
0.604740	102.870335	100.729722	0.000000
0.613796	86.099399	118.933889	0.000000
0.628817	74.054202	114.079444	0.000000
0.633485	102.278038	143.206111	0.000000
0.643495	78.918880	92.234444	0.000000
0.650885	69.634558	106.797778	0.000000
0.673997	135.864257	91.020833	0.000000
0.680420	75.065875	118.933889	0.000000
0.687454	39.741762	105.584167	0.000000
0.683841	107.799823	103.156944	0.000000
0.712829	151.490550	87.380000	0.000000
0.737148	27.319642	111.652222	0.000000
0.748748	105.096624	95.875278	0.000000
0.757323	116.434220	92.234444	0.000000
0.770563	73.567551	129.856389	0.000000
0.811061	113.232622	115.293056	0.000000
0.820091	144.518175	120.147500	0.000000
0.827813	72.226951	91.020833	0.000000
0.841665	25.211849	116.506667	0.000000
0.889552	64.068883	93.448056	0.000000
0.880523	25.769857	98.302500	0.000000
0.897540	39.232824	101.943333	0.000000
0.895060	106.502393	83.739167	0.000000
0.921708	120.449137	106.797778	0.000000
0.949080	96.429100	82.525556	0.000000
0.977977	96.429100	82.525556	0.000000
0.993432	128.304936	94.661667	0.000000
1.000047	53.052041	98.302500	0.000000
1.039388	53.052041	98.302500	0.000000
1.044602	43.365833	117.720278	0.000000
1.070804	4.196809	127.429167	0.000000
1.093433	5.597137	364.083333	563.352009
1.105364	5.945848	224.518056	0.000000
1.141130	5.246990	532.775278	563.352009
1.178908	4.197331	293.693889	0.000000
1.192810	4.895667	379.860278	564.051477
1.214407	5.245684	1123.803889	563.701765
1.243955	4.196809	472.094722	563.701765
1.242658	4.896277	762.147778	563.701765
1.249436	4.896277	860.450278	563.701765
1.269406	4.546826	1620.170833	563.352009
1.284708	4.896277	1529.150000	563.701765
1.305593	4.546826	2006.099167	563.701765
1.390661	4.896277	2299.793056	563.701765
1.400265	4.546826	2415.086111	563.701765
1.406497	4.546826	2415.086111	563.701765
1.416062	4.546826	2760.965278	563.701765
1.416062	4.546826	3523.113056	563.701765
1.425194	4.546826	3904.186944	563.701765
1.466061	4.896277	3927.245556	563.352009
1.508748	4.546826	4159.045278	563.701765
1.543000	4.546826	4532.837500	563.701765
1.650036	4.546826	6070.482778	563.701765
1.666113	4.546826	5676.059167	563.701765
1.665490	4.546826	6619.035000	563.701765
1.651715	4.546826	6597.190000	563.701765
1.723134	4.546826	7987.988333	563.352009
1.758596	4.546826	7234.335833	563.352009
1.774114	4.546826	8688.241944	563.352009
1.754566	4.546826	7450.358611	563.352009
1.780919	4.546826	8517.122778	563.352009
1.754959	4.546826	8812.030278	563.701765
1.831429	4.546826	9740.442778	563.352009
1.842482	4.546826	9420.049444	563.352009
1.837152	4.546826	9281.697778	563.352009
1.837228	4.546826	8793.826111	563.701765
1.841299	4.546826	9049.898056	563.352009
1.888232	4.546826	10789.002778	563.352009
1.896131	4.546826	11730.765000	563.352009
1.885549	4.546826	11730.765000	563.352009
1.967805	4.197331	12764.761667	563.352009
1.980436	4.896886	12134.897500	563.352009
1.969662	4.896886	12134.897500	563.352009
2.001078	4.197331	11837.562778	563.352009
1.995406	4.197331	12507.476111	563.352009
2.000456	4.546826	11241.679722	563.352009
2.002174	4.197331	13477.151389	563.352009
2.021685	4.546826	10443.123611	563.352009
2.058342	4.197331	11312.069167	563.352009
2.054641	4.546826	11773.241389	563.352009
2.052835	4.546826	11773.241389	563.352009
2.065147	4.197331	12878.841111	563.352009
2.083895	4.197331	13569.385833	563.352009
2.103117	4.546826	12787.820278	563.352009
2.098956	4.197331	13468.656111	563.352009
2.074458	4.546826	13526.909444	563.352009
2.102911	4.197331	13523.268611	563.352009
2.078822	4.546826	11631.248889	563.352009
2.123211	4.546826	13321.809167	563.352009
2.131275	4.197331	14710.180278	563.352009
2.084024	4.197331	14710.180278	563.352009
2.056179	4.546826	11418.866944	563.352009
2.042672	4.896886	12819.374167	563.352009
2.023861	4.197331	13282.973611	563.352009
