power (mW)	FWHM	peak value	peak location
0.278371	86.406514	100.729722	0.000000
0.271922	64.464292	97.088889	0.000000
0.265957	27.823947	94.661667	0.000000
0.264100	59.249847	94.661667	0.000000
0.278740	14.689665	98.302500	0.000000
0.291294	13.736896	94.661667	0.000000
0.289488	111.667067	93.448056	0.000000
0.283256	147.199069	91.020833	0.000000
0.242083	125.114498	100.729722	0.000000
0.249295	85.926036	98.302500	0.000000
0.251775	85.926036	98.302500	0.000000
0.241917	31.309799	84.952778	0.000000
0.201864	87.210461	99.516111	0.000000
0.167572	50.256330	93.448056	0.000000
0.148493	92.442703	100.729722	0.000000
0.132072	92.442703	100.729722	0.000000
0.137046	90.706677	75.243889	0.000000
0.153695	117.363088	101.943333	0.000000
0.185074	117.363088	101.943333	0.000000
0.205349	88.406206	98.302500	0.000000
0.244818	83.473198	84.952778	0.000000
0.280966	135.467590	103.156944	0.000000
0.359343	143.312775	99.516111	0.000000
0.351088	115.470864	99.516111	0.000000
0.354599	141.946080	99.516111	0.000000
0.362536	53.296215	94.661667	0.000000
0.366276	24.376672	110.438611	0.000000
0.366403	60.406365	103.156944	0.000000
0.382098	96.777877	95.875278	0.000000
0.409674	118.963959	92.234444	0.000000
0.418107	111.589970	83.739167	0.000000
0.416148	63.223230	100.729722	0.000000
0.407194	141.653182	84.952778	0.000000
0.407308	97.362250	104.370556	0.000000
0.421007	97.362250	104.370556	0.000000
0.430025	2.100232	376.219444	0.000000
0.453581	2.800309	666.272500	561.252560
0.469074	2.450118	858.023056	561.602576
0.509573	2.799961	1313.127222	561.602576
0.516136	3.850663	1313.127222	561.252560
0.531450	2.800309	1701.482778	561.252560
0.596714	2.800309	2359.260000	561.252560
0.589222	3.500386	2785.237500	561.252560
0.596472	2.450118	2944.220556	561.252560
0.599346	3.150152	2873.831111	561.252560
0.619138	3.150152	2134.741944	561.252560
0.633612	3.150543	3177.233889	560.902499
0.655083	3.150543	4115.355278	561.252560
0.716772	2.800309	5048.622222	561.252560
0.720932	3.150152	7125.110833	561.602576
0.711608	2.450118	6890.883889	561.602576
0.743940	3.150152	8390.907222	561.252560
0.746802	3.150152	8549.890278	561.602576
0.769265	3.150152	9621.508889	561.252560
0.776198	3.150152	12199.218889	561.602576
0.851052	3.150152	15176.206944	561.602576
0.845505	3.150152	16837.640556	561.252560
0.855580	2.800309	16274.525000	561.252560
0.862715	3.500386	16410.449444	561.252560
0.860845	3.150152	14832.755000	561.252560
0.899284	3.150152	20286.723333	561.252560
0.907361	3.150152	19830.405556	561.602576
0.920551	3.150152	23234.584722	561.252560
0.918159	3.150152	20954.209444	561.252560
0.902489	3.150152	20820.712222	561.252560
0.906063	3.500386	20649.593056	561.252560
0.977203	3.500386	24751.598611	561.252560
0.976872	3.500386	24751.598611	561.252560
0.971123	3.150152	29070.840556	561.252560
0.970475	2.800309	30164.304167	561.252560
1.018897	2.800309	33875.526944	561.252560
1.050530	2.800309	30019.884444	561.252560
1.065450	3.150543	33658.290556	561.252560
1.127571	3.150152	36597.656667	561.252560
1.124315	3.150543	32796.626667	561.252560
1.120563	3.500820	36340.371111	560.902499
1.129212	3.150543	36013.909722	561.252560
1.127380	3.150543	45578.378889	561.252560
1.132825	3.150543	39233.620000	561.252560
1.162373	3.150543	42253.084444	560.902499
1.177573	3.150543	37620.730833	560.902499
1.183614	3.150543	38462.976944	560.902499
1.228907	3.150543	43488.540556	560.902499
1.263263	3.150543	45681.535833	560.902499
1.266582	3.150543	50169.469722	560.902499
1.276859	3.150543	49571.159444	560.902499
1.277394	3.500820	47509.234167	560.902499
1.276731	3.500820	48857.556111	560.902499
1.270703	3.500820	44838.076111	560.902499
1.262779	3.500820	45267.694444	560.902499
1.255975	3.150543	46795.630833	560.902499
1.250799	3.500820	42319.833056	560.902499
1.296091	3.500820	49941.310833	560.902499
1.280523	3.500820	49941.310833	560.902499
1.271034	3.150934	47380.591389	560.552395
1.292733	3.150934	51693.765278	560.902499
1.300250	3.501254	48185.215556	560.552395
1.306751	3.501254	50386.706111	560.552395
1.303507	3.150934	46791.990000	560.552395
1.307629	3.501254	48091.767500	560.552395
1.321060	3.501254	47158.500556	560.552395
1.318860	3.501254	50250.781667	560.552395
1.323096	3.501254	49590.577222	560.552395
1.337545	3.501254	48073.563333	560.552395
1.255708	3.501254	51856.389167	560.552395
1.307170	3.150934	52343.047222	560.552395
1.354003	3.501254	48391.529444	560.552395
1.382723	3.151324	44816.231111	560.552395
