power (mW)	FWHM	peak value	peak location
0.190439	101.149787	112.865833	0.000000
0.193038	32.698291	122.574722	0.000000
0.195970	22.849171	98.302500	0.000000
0.204832	55.699168	110.438611	0.000000
0.214919	74.859657	106.797778	0.000000
0.221900	37.543695	95.875278	0.000000
0.213428	23.887312	111.652222	0.000000
0.200518	57.487324	120.147500	0.000000
0.178920	57.487324	120.147500	0.000000
0.174211	41.797972	99.516111	0.000000
0.171980	24.337101	112.865833	0.000000
0.172482	22.776523	95.875278	0.000000
0.173075	88.310924	139.565278	0.000000
0.175023	39.492388	111.652222	0.000000
0.176981	57.553373	108.011389	0.000000
0.175279	49.831597	117.720278	0.000000
0.180195	82.642077	101.943333	0.000000
0.189689	62.026520	105.584167	0.000000
0.194601	66.937877	108.011389	0.000000
0.198933	129.647873	115.293056	0.000000
0.207682	140.543844	98.302500	0.000000
0.206668	14.635822	104.370556	0.000000
0.212153	46.850513	106.797778	0.000000
0.212257	40.643432	99.516111	0.000000
0.217842	57.820368	101.943333	0.000000
0.220364	110.401471	112.865833	0.000000
0.225549	70.689500	127.429167	0.000000
0.229747	130.789922	126.215556	0.000000
0.231677	72.076507	104.370556	0.000000
0.242079	33.936566	134.710833	0.000000
0.248036	61.832548	112.865833	0.000000
0.264403	120.638847	114.079444	0.000000
0.263658	57.555596	118.933889	0.000000
0.264821	57.555596	118.933889	0.000000
0.275308	74.987921	144.419722	0.000000
0.279290	5.601311	172.332778	0.000000
0.298710	2.101013	252.431111	0.000000
0.296120	5.602005	214.809167	0.000000
0.300537	3.151715	381.073889	0.000000
0.309327	3.151715	476.949167	560.202248
0.321138	3.502122	656.563611	560.202248
0.329910	4.552476	631.077778	559.852058
0.332630	3.852096	686.903889	560.202248
0.340056	3.852096	816.760278	559.852058
0.344935	3.502122	861.663889	560.202248
0.356787	3.852096	1189.338889	560.202248
0.376571	3.502122	1603.180278	560.202248
0.396427	3.852096	1625.025278	559.852058
0.399085	3.852096	1554.635833	560.202248
0.409221	3.852096	1400.507222	560.202248
0.410043	3.501688	1667.501667	560.202248
0.411470	3.852096	1791.290000	560.202248
0.428210	3.501688	2206.345000	560.202248
0.434904	3.501688	2337.415000	560.202248
0.457767	3.852096	2951.502222	559.852058
0.456385	3.852096	2951.502222	559.852058
0.463945	3.501688	3112.912500	560.202248
0.474862	3.502122	2730.625000	559.852058
0.480204	3.502122	2730.625000	559.852058
0.496159	3.501688	3264.613889	560.202248
0.505748	3.852096	3950.304167	560.202248
0.505133	3.852096	3700.300278	559.852058
0.504092	3.502122	5529.212222	559.852058
0.513223	3.852096	3887.196389	560.202248
0.517357	3.852096	4852.017222	560.202248
0.524962	3.852096	4412.690000	560.202248
0.525357	3.852096	5041.340556	560.202248
0.554627	3.151715	6042.569722	560.202248
0.553558	3.501688	5631.155556	560.202248
0.564157	3.852096	6197.911944	560.202248
0.581307	3.502122	5827.760556	559.852058
0.573472	3.502122	5826.546944	559.852058
0.587218	3.502122	6693.065278	559.852058
0.590451	3.502122	6173.639722	559.852058
0.596120	3.852096	5634.796389	559.852058
0.604955	3.852096	7588.710278	559.852058
0.629170	3.852096	8102.067778	560.202248
0.622198	3.852096	7569.292500	560.202248
0.631293	3.852096	8336.294722	560.202248
0.629938	3.852096	7530.456944	560.202248
0.632829	3.852096	8217.360833	560.202248
0.654144	3.852096	9572.964444	560.202248
0.655701	3.852096	9572.964444	560.202248
0.651935	3.852096	8790.185278	559.852058
0.644039	3.852096	8731.931944	559.852058
0.656918	3.502122	7359.337778	559.852058
0.676899	4.202546	8388.480000	559.852058
0.659064	3.852096	8409.111389	559.852058
0.670789	3.852096	8883.633333	560.202248
0.678498	3.502122	9365.436944	559.852058
0.675180	3.852096	8518.336389	559.852058
0.677012	3.852096	7778.033611	559.852058
0.684383	3.852096	8452.801389	560.202248
0.685766	3.852096	7848.423056	559.852058
0.680388	3.852096	6927.292222	560.202248
0.682291	3.852096	7968.570556	560.202248
0.698906	3.852096	11011.093611	560.202248
0.693868	3.852096	9663.985278	559.852058
0.696697	3.852096	8389.693611	560.202248
0.702425	3.852096	8085.077222	560.202248
0.690623	3.852096	8299.886389	560.202248
0.700301	3.852096	8241.633056	560.202248
0.700553	3.852096	9013.489722	560.202248
0.698834	4.202026	7890.899444	560.202248
0.689923	3.851618	9076.597500	560.202248
