power (mW)	FWHM	peak value	peak location
3.619607	112.008581	179.614444	0.000000
3.506010	112.448853	194.177778	0.000000
4.060000	68.615333	182.041667	0.000000
4.108758	42.550137	160.196667	0.000000
4.460181	55.717835	165.051111	0.000000
4.771167	80.414609	167.478333	0.000000
5.015426	128.924791	174.760000	0.000000
5.353363	4.200463	191.750556	0.000000
5.523358	13.968379	206.313889	0.000000
6.750326	7.348524	184.468889	0.000000
7.840267	59.024610	177.187222	0.000000
8.217974	12.939326	262.140000	0.000000
9.102865	24.111897	245.149444	0.000000
13.415984	15.733079	279.130556	0.000000
13.717155	4.900539	344.665556	0.000000
13.778346	22.688554	383.501111	562.652366
15.204921	9.796199	461.172222	563.002209
17.128588	16.075678	434.472778	562.302480
18.251226	14.681467	461.172222	563.002209
21.442726	23.389585	507.289444	565.449891
22.536270	16.087710	696.612778	563.002209
23.921829	14.681467	844.673333	563.002209
26.901945	13.640444	902.926667	562.652366
29.492716	15.392080	997.588333	561.602576
30.027484	13.991068	1308.272778	561.952550
34.156509	11.543360	1509.732222	561.952550
35.695243	13.991068	1441.770000	562.302480
37.529593	13.291518	1589.830556	562.652366
41.063593	16.436417	1682.065000	561.952550
42.453068	13.643839	2034.012222	561.252560
42.789028	13.296478	2257.316667	560.202248
46.186626	12.593535	2398.095556	560.902499
48.923562	12.244478	2791.305556	560.552395
50.033251	12.595101	2915.093889	560.552395
52.114582	12.945768	2915.093889	560.552395
55.768807	11.895376	3439.373889	560.902499
65.045920	12.596667	3980.644444	560.202248
68.161020	12.246000	4509.778889	560.202248
68.807043	12.246000	5102.021111	560.202248
67.187741	11.546232	5514.648889	560.552395
69.920224	3.144271	5788.925000	560.202248
73.454250	3.493852	6335.050000	560.202248
76.418638	11.546232	6235.533889	560.202248
79.296733	3.493852	6728.260000	560.202248
84.467250	4.542859	7184.577778	560.202248
85.849257	11.546232	7689.440000	560.202248
91.095146	2.794733	7310.793333	560.202248
94.074529	3.143877	7900.608333	560.202248
99.698675	3.143877	8517.122778	559.852058
95.547055	11.195651	9417.622222	560.202248
98.305498	3.143877	8628.775000	559.852058
108.038436	12.246000	8963.731667	559.852058
112.122344	12.246000	8677.319444	559.852058
111.585832	11.896855	9182.181667	560.202248
114.050659	2.444932	9298.688333	559.852058
110.255752	3.144271	11298.719444	559.852058
121.417479	12.947377	8750.136111	559.852058
130.911090	2.794383	10022.000556	559.852058
131.880782	2.095525	10553.562222	560.202248
136.625196	12.246000	11546.296111	560.202248
137.765705	2.794383	12808.451667	559.852058
145.926477	12.246000	12332.716111	559.852058
146.856496	12.596667	11648.239444	559.852058
146.542455	2.444932	12519.612222	559.852058
148.111942	12.596667	13386.130556	559.852058
155.784922	12.596667	13111.854444	559.852058
156.720657	2.444932	12711.362778	559.852058
156.014134	12.596667	13592.444444	559.852058
158.866926	12.246000	15713.836667	560.202248
158.996240	12.596667	13136.126667	559.852058
163.313944	12.246000	15636.165556	560.202248
164.824666	2.444932	15723.545556	560.202248
170.789531	11.895376	16412.876667	560.202248
172.922772	12.596667	15259.946111	560.202248
171.177450	12.596667	15735.681667	560.202248
179.820507	12.596667	14524.497778	559.852058
182.529039	11.895376	17798.820556	560.202248
187.940663	12.596667	16495.402222	560.202248
191.426848	12.246000	17259.977222	560.202248
186.389976	9.799851	18483.297222	560.202248
185.633369	12.246000	16908.030000	560.202248
185.681087	10.150475	18293.973889	560.202248
190.395175	11.895376	19337.679444	560.202248
193.720986	12.246000	16446.857778	560.202248
191.146264	12.246000	18388.635556	560.202248
202.360819	2.444932	20082.836667	560.202248
197.010045	12.246000	18497.860556	560.202248
196.434139	9.099864	20483.328333	560.202248
196.826970	9.450444	20027.010556	560.202248
194.372050	12.246000	17565.807222	560.202248
199.239585	11.895376	19442.050000	560.202248
206.189835	12.246000	18878.934444	560.202248
206.639129	10.150475	20417.793333	560.202248
209.153234	11.546232	22978.512778	560.202248
200.511399	11.895376	20636.243333	560.202248
210.251286	2.095525	21628.977222	560.202248
208.845665	12.596667	17934.745000	560.202248
212.651375	11.895376	21039.162222	560.202248
204.539579	12.246000	19527.002778	560.202248
219.063764	12.246000	21308.583889	560.202248
