power (mW)	FWHM	peak value	peak location
0.465149	5.920532	17425.028333	575.219189
0.461523	5.920532	19276.998889	575.219189
0.535551	5.920532	17077.935556	575.219189
0.379674	5.920532	17323.085000	575.219189
0.295916	6.269195	19660.500000	575.219189
0.246120	5.920532	20514.882222	575.219189
0.191935	5.920532	19791.570000	575.219189
0.171520	5.920532	20133.808333	575.567456
0.261765	5.571914	22478.505000	575.567456
0.256041	6.269195	22556.176111	575.219189
0.215212	5.571914	23233.371111	575.567456
0.184303	5.571914	25175.148889	575.567456
0.125158	5.920532	21330.428889	575.567456
0.078223	6.269195	23155.700000	575.219189
0.027091	6.269195	24934.853889	575.219189
0.100737	5.572619	26136.328889	575.219189
0.109322	5.572619	25862.052778	575.567456
0.103981	5.571914	24609.606111	575.567456
0.041210	5.223339	28459.180556	575.567456
0.046742	6.268402	23774.641667	575.567456
-0.020797	5.571914	23427.548889	575.567456
-0.100929	5.571914	23427.548889	575.567456
-0.042357	5.571914	27272.268889	575.567456
-0.080706	5.224000	26024.676667	575.219189
-0.101884	5.224000	29709.200000	575.567456
-0.146338	5.572619	29447.060000	575.219189
-0.055521	5.920532	26539.247778	575.567456
-0.083186	5.920532	26735.852778	575.219189
-0.000955	5.571914	28837.827222	575.567456
-0.021751	5.571914	29490.750000	575.567456
0.141948	5.224000	29956.776667	575.219189
0.190982	5.920532	30541.737222	575.219189
0.237343	5.571914	30619.408333	575.567456
0.318621	6.269195	27602.371111	575.219189
0.328160	5.920532	28633.940556	575.567456
0.379483	5.921281	35100.060556	575.219189
0.453129	6.268402	29549.003333	575.567456
0.438629	5.920532	29726.190556	575.567456
0.431760	5.920532	31490.781111	575.219189
0.510939	6.269195	30915.529444	575.219189
0.568176	5.571209	32034.478889	575.915679
0.542420	5.571914	33750.525000	575.567456
0.520287	5.920532	35442.298889	575.219189
0.495676	5.571914	32512.641667	575.567456
0.499873	5.920532	32532.059444	575.567456
0.518952	5.223339	34269.950556	575.915679
0.474879	5.571914	34311.213333	575.567456
0.490906	5.571914	38126.806667	575.567456
0.497965	4.874808	38211.759444	575.567456
0.460761	5.920532	34760.249444	575.219189
0.405812	5.920532	34760.249444	575.219189
0.338845	5.223339	36915.622778	575.915679
0.248028	5.571914	36316.098889	575.567456
0.283325	5.223339	41544.335556	575.567456
0.203765	5.572619	34760.249444	575.219189
0.207389	5.223339	41835.602222	575.567456
0.241922	4.875425	40262.762222	575.567456
0.222271	5.223339	35837.936111	575.567456
0.194034	5.572619	37830.685556	575.219189
0.186974	4.526894	43141.447778	575.915679
0.129928	5.921281	35942.306667	575.219189
-0.043501	4.875425	43279.799444	575.567456
-0.120963	5.571914	41037.046111	575.567456
-0.150344	5.572619	41716.668333	575.219189
-0.177246	5.224000	41236.078333	575.219189
-0.175148	5.223339	41714.241111	575.915679
-0.058765	5.224000	43675.436667	575.567456
-0.058573	5.571914	38092.825556	575.567456
0.005341	5.572619	34510.245556	575.219189
0.102454	5.224000	45551.679444	575.219189
0.046361	6.269195	36291.826667	575.219189
0.008585	5.571914	38959.343889	575.567456
0.006295	5.920532	40282.180000	575.567456
0.213685	5.224661	46558.976667	575.219189
0.160073	5.224000	41556.471667	575.567456
0.179915	5.572619	46643.929444	575.219189
0.269969	5.224000	50059.031111	575.219189
0.315187	5.224000	42223.957778	575.219189
0.336746	4.875425	46857.525000	575.567456
0.364602	5.920532	45039.535556	575.219189
0.347239	5.572619	46214.311111	575.219189
0.352963	4.526894	49226.493889	575.567456
0.331213	5.920532	42459.398333	575.219189
0.332930	5.224000	43022.513889	575.219189
0.319765	5.572619	45532.261667	575.219189
0.244593	5.572619	40750.633889	575.219189
0.242113	5.224000	47187.627222	575.219189
0.198995	5.572619	49864.853333	575.219189
0.097112	5.572619	46784.708333	575.219189
0.200139	4.876042	54583.373333	575.219189
0.136988	5.572619	43243.391111	575.219189
0.111040	4.875425	48891.537222	575.567456
0.091578	5.224000	44024.956667	575.219189
0.149770	5.920532	44753.123333	575.567456
0.134507	5.571914	47879.385556	575.567456
0.093869	5.224661	50597.874444	575.219189
0.113711	4.876042	44340.495556	575.219189
0.098256	4.875425	49983.787222	575.567456
0.177053	5.224661	48884.255556	575.219189
0.189073	5.224661	51355.167778	575.219189
0.145000	4.876042	48279.877222	575.219189
0.151297	4.875425	51059.046667	575.567456
0.152632	5.224000	48758.040000	575.219189
0.234100	4.876042	48005.601111	575.219189
0.276646	5.224000	44889.047778	575.219189
