power (mW)	FWHM	peak value	peak location
-0.107035	5.920532	6359.322222	575.219189
0.128593	5.572619	7119.042778	575.219189
0.300305	5.572619	6262.233333	575.219189
0.295725	5.224000	6640.880000	575.219189
0.368799	4.876042	5640.864444	575.219189
0.401806	5.224661	5133.575000	575.219189
0.423746	5.224661	5133.575000	575.219189
0.286758	5.920532	5398.142222	575.219189
0.340180	4.876042	7167.587222	575.219189
0.277028	5.920532	5810.770000	575.219189
0.246311	5.224661	6764.668333	575.219189
0.319384	5.572619	6568.063333	575.219189
0.258139	5.571914	7145.742222	575.567456
0.256994	5.572619	6473.401667	575.219189
0.158737	5.920532	6602.044444	575.219189
0.096158	5.224000	6754.959444	575.219189
0.079749	5.571914	7254.967222	575.567456
0.179151	4.876042	6847.193889	575.219189
0.152633	5.571914	6320.486667	575.219189
0.181442	6.268402	6043.783333	575.219189
0.180869	4.876042	7077.780000	575.219189
0.178198	4.876042	7077.780000	575.219189
0.195369	4.876042	7250.112778	575.219189
0.171139	5.920532	6592.335556	575.219189
0.191745	4.876042	7597.205556	575.219189
0.198231	5.224000	6521.946111	575.219189
0.197850	5.224000	6490.392222	575.219189
0.250508	4.876042	6436.993333	575.219189
0.253751	4.876042	6436.993333	575.219189
0.243258	5.224000	6318.059444	575.219189
0.327396	5.224000	7191.859444	575.219189
0.256996	4.876042	6631.171111	575.219189
0.329305	5.572619	5669.991111	575.219189
0.391884	5.920532	6184.562222	575.219189
0.389786	4.876042	6075.337222	575.219189
0.400852	5.572619	6361.749444	575.219189
0.386733	5.571914	5531.639444	575.567456
0.453320	5.224661	6599.617222	575.219189
0.452175	5.920532	6140.872222	575.219189
0.387878	4.876042	7293.802778	575.219189
0.429662	5.920532	6718.551111	575.219189
0.479077	4.876042	7199.141111	575.219189
0.501018	5.224000	6444.275000	575.219189
0.530018	5.920532	6410.293889	575.219189
0.494340	5.572619	6757.386667	575.219189
0.584585	5.920532	5805.915556	575.219189
0.621598	5.920532	5805.915556	575.219189
0.681316	5.920532	5514.648889	575.219189
0.640487	5.572619	6371.458333	575.219189
0.608051	5.920532	5975.821111	575.219189
0.652697	5.224000	5844.751111	575.219189
0.520287	5.920532	5572.902222	575.219189
0.517807	5.920532	5378.724444	575.219189
0.446833	5.224661	6507.382778	575.219189
0.415352	5.920532	5805.915556	575.219189
0.436721	6.268402	5849.605556	575.567456
0.391694	5.572619	6119.027222	575.219189
0.503307	5.572619	5568.047778	575.219189
0.391312	4.876042	6169.998889	575.219189
0.453129	5.920532	5604.456111	575.219189
0.533834	5.920532	5361.733889	575.219189
0.502354	5.920532	5361.733889	575.219189
0.634763	5.572619	5531.639444	575.219189
0.617210	5.224661	6383.594444	574.870879
0.664335	5.572619	6058.346667	575.219189
0.615111	5.920532	5667.563889	575.219189
0.643348	5.572619	6327.768333	575.219189
0.656323	5.571914	5798.633889	575.219189
0.589736	6.269195	4929.688333	575.219189
0.459234	5.572619	5631.155556	575.219189
0.320148	5.572619	4818.036111	575.219189
0.191363	5.920532	4919.979444	575.219189
0.142330	6.268402	5434.550556	575.219189
-0.047890	5.920532	5674.845556	575.219189
-0.090055	5.920532	5674.845556	575.219189
-0.142331	5.572619	5322.898333	575.219189
-0.177437	5.920532	4839.881111	575.219189
-0.075745	5.224661	5570.475000	574.870879
-0.014883	5.572619	4878.716667	575.219189
0.037394	5.572619	4805.900000	575.219189
0.153205	5.572619	5148.138333	575.219189
0.287903	4.876658	5728.244444	574.870879
0.285614	5.920532	5281.635556	575.219189
0.325871	5.572619	5793.779444	575.219189
0.352200	5.572619	5810.770000	575.219189
0.297634	6.617065	5686.981667	575.219189
0.302403	5.224661	6082.618889	575.219189
0.312897	5.224661	6276.796667	575.219189
0.342469	5.920532	5585.038333	575.219189
0.304503	5.921281	4793.763889	575.219189
0.459425	5.920532	5657.855000	575.219189
0.593743	5.572619	5072.894444	574.870879
0.716421	5.224661	5383.578889	574.870879
0.722909	5.920532	4745.219444	575.219189
0.707645	5.920532	5116.584444	575.219189
0.754961	5.572619	4849.590000	575.219189
0.772514	5.921281	4835.026667	575.219189
0.615684	6.268402	5196.682778	575.219189
0.665671	5.921281	4944.251667	574.870879
0.722145	6.269195	5063.185556	574.870879
0.712605	5.920532	4856.871667	575.219189
0.706500	4.876658	5381.151667	574.870879
0.731875	6.268402	4327.737222	575.219189
0.772323	6.269195	4798.618333	574.870879
0.744086	5.225321	5835.042222	574.870879
