power (mW)	FWHM	peak value	peak location
0.093960	143.719354	172.332778	0.000000
0.086295	69.404857	182.041667	0.000000
0.096376	132.568057	165.051111	0.000000
0.118789	56.086969	157.769444	0.000000
0.122649	76.257776	160.196667	0.000000
0.134317	34.362650	182.041667	0.000000
0.160601	76.471086	157.769444	0.000000
0.222893	140.620962	191.750556	0.000000
0.226962	130.415542	186.896111	0.000000
0.290339	18.161131	152.915000	0.000000
0.270859	19.938453	169.905556	0.000000
0.324874	94.677731	169.905556	0.000000
0.354893	66.902959	172.332778	0.000000
0.400684	118.424355	184.468889	0.000000
0.443368	39.237458	160.196667	0.000000
0.518589	122.381713	223.304444	0.000000
0.698178	46.282806	218.450000	0.000000
0.700205	80.661978	199.032222	0.000000
0.728567	47.008663	165.051111	0.000000
0.817466	39.634220	165.051111	0.000000
0.915726	8.042375	213.595556	0.000000
1.125832	33.946849	203.886667	0.000000
1.155314	20.205736	298.548333	0.000000
1.313632	5.939176	257.285556	0.000000
1.332164	29.669487	271.848889	0.000000
1.523057	9.431621	279.130556	0.000000
1.515564	45.132388	240.295000	0.000000
1.684752	35.084997	310.684444	0.000000
1.674160	9.426899	359.228889	0.000000
1.730871	6.303036	281.557778	0.000000
1.843738	42.361439	296.121111	0.000000
2.100019	12.563670	429.618333	0.000000
2.137177	23.010106	366.510556	0.000000
2.368301	20.926210	417.482222	0.000000
2.420939	14.668630	376.219444	0.000000
2.722779	13.618319	444.181667	0.000000
2.891922	16.061609	475.735556	565.100353
3.024130	12.928032	504.862222	565.449891
3.123767	17.449504	541.270556	565.100353
3.249601	12.226165	584.960556	565.100353
3.348087	9.790103	633.505000	565.449891
3.552491	9.783997	643.213889	565.449891
3.549754	11.882044	643.213889	565.100353
3.760288	8.389428	703.894444	565.100353
3.861994	9.783997	764.575000	565.100353
4.109818	17.799608	827.682778	565.100353
4.240425	12.224635	834.964444	565.100353
4.429656	12.227694	800.983333	565.100353
4.345188	10.134057	949.043889	565.100353
4.628435	10.831602	987.879444	565.100353
4.947915	10.482852	1082.541111	565.100353
5.152758	11.528971	1157.785000	565.100353
5.207679	10.482852	1135.940000	565.100353
5.383789	9.436337	1378.662222	565.100353
5.309332	10.484161	1288.855000	565.100353
5.304080	10.134057	1211.183889	565.100353
5.417412	8.389428	1284.000556	565.100353
5.682973	8.736260	1330.117778	565.449891
5.732462	8.737351	1364.098889	565.100353
6.058130	10.482852	1432.061111	565.100353
6.243802	9.785219	1546.140556	565.100353
6.408889	8.039367	1504.877778	565.100353
6.482739	9.436337	1609.248333	565.100353
6.708412	9.786441	1665.074444	565.100353
6.878813	9.435159	1650.511111	565.100353
7.039638	9.086277	1718.473333	565.100353
7.325677	8.389428	2017.021667	565.100353
7.280805	7.689350	1958.768333	565.100353
7.296254	8.388381	2087.411111	565.100353
7.400750	8.737351	1939.350556	565.100353
7.481070	8.388381	2114.110556	565.100353
7.582892	8.738441	2041.293889	565.100353
7.574943	8.039367	2065.566111	565.100353
7.687331	7.689350	2291.297778	565.100353
7.996641	9.087411	2109.256111	565.100353
8.056332	8.737351	2264.598333	565.100353
8.106638	8.388381	2177.218333	565.100353
8.159075	8.737351	2322.851667	565.100353
8.329016	8.736260	2276.734444	565.100353
8.419537	8.039367	2398.095556	565.100353
8.469095	8.738441	2504.893333	565.100353
8.694751	8.738441	2500.038889	565.100353
8.465786	8.388381	2553.437778	565.100353
8.351302	8.738441	2677.226111	565.100353
8.355639	8.388381	2475.766667	565.100353
8.393670	7.690310	2521.883889	565.100353
8.968704	8.039367	2810.723333	565.100353
9.097307	7.689350	2883.540000	565.100353
9.041341	7.689350	2696.643889	565.100353
9.280315	8.039367	2837.422778	565.100353
9.260768	8.388381	2798.587222	565.100353
9.572037	7.340293	3228.205556	565.100353
9.456783	7.689350	2847.131667	565.100353
9.453751	7.689350	3038.882222	565.100353
9.258959	8.388381	2703.925556	565.100353
9.371843	7.689350	2983.056111	565.100353
9.434805	7.689350	3026.746111	565.449891
9.478065	7.689350	2978.201667	565.100353
9.385705	7.689350	2888.394444	565.100353
9.228726	8.388381	2818.005000	565.100353
