power (mW)	FWHM	peak value	peak location
1.006948	4.234982	140.778889	0.000000
1.058556	66.859883	177.187222	0.000000
1.168103	28.608491	189.323333	0.000000
1.158388	20.440289	160.196667	0.000000
1.216218	18.711698	191.750556	0.000000
1.428541	121.878222	186.896111	0.000000
1.674781	149.922132	155.342222	0.000000
2.294344	105.902558	162.623889	0.000000
2.433547	10.918589	160.196667	0.000000
3.137361	11.071270	182.041667	0.000000
3.259304	15.141526	196.605000	0.000000
4.039239	24.249564	201.459444	0.000000
4.639410	13.196290	271.848889	0.000000
4.870028	18.742976	359.228889	0.000000
5.295258	15.287710	322.820556	0.000000
6.472715	9.017490	521.852778	585.647964
6.774119	11.108410	796.128889	584.953954
7.001682	12.144371	830.110000	586.341796
8.109256	12.487345	907.781111	585.994902
8.391312	12.490551	1213.611111	585.994902
9.218230	12.487345	1366.526111	587.035450
11.153589	13.878382	1461.187778	586.341796
11.378558	12.833390	1691.773889	586.341796
13.475852	12.142814	1725.755000	586.688646
13.752956	12.836685	2133.528333	586.341796
14.349845	12.138138	2385.959444	587.382210
15.296376	13.182775	2390.813889	585.994902
17.965536	12.136578	2733.052222	587.382210
17.545046	11.789062	3150.534444	587.382210
18.121474	12.485742	3509.763333	587.728926
19.601267	11.787546	3060.727222	588.422223
20.465466	12.484138	3985.498889	587.728926
21.137136	11.787546	4085.015000	588.422223
22.388334	11.092737	4859.298889	588.768805
24.579709	11.440119	5995.238889	588.422223
25.484569	11.091309	6060.773889	588.768805
27.631539	11.091309	6713.696667	589.115342
28.195971	10.744015	6808.358333	589.461835
29.838771	12.828444	7259.821667	588.422223
30.849954	11.089881	7711.285000	589.461835
33.016120	10.742631	8427.315556	589.461835
33.390837	10.048265	8898.196667	589.808282
35.648243	11.437175	8670.037778	589.808282
36.467806	10.742631	9645.781111	589.808282
38.406922	10.395426	10424.919444	589.808282
41.146081	9.352871	11286.583333	590.501044
42.027955	11.435701	10296.276667	589.808282
43.813723	10.741247	10801.138889	590.154685
44.310698	9.699898	10847.256111	590.501044
46.065361	10.392746	11082.696667	590.501044
46.053927	10.392746	12454.077222	590.501044
47.362320	9.352871	13531.763889	590.501044
49.468828	9.004726	12881.268333	590.847357
50.585374	9.351664	13485.646667	590.847357
52.371452	10.738477	12878.841111	590.501044
54.420903	10.045674	15077.904444	590.847357
54.836425	11.432754	15461.405556	590.501044
55.213730	9.697395	15689.564444	591.193626
56.758345	9.003563	18570.677222	591.193626
58.234534	9.003563	19172.628333	591.539851
62.404636	10.043081	19260.008333	591.193626
62.176331	9.696143	19713.898889	591.539851
63.907169	8.308835	21580.432778	591.886030
63.159291	9.696143	19150.783333	591.539851
64.527468	9.001236	22582.875556	591.886030
67.770456	9.349249	23145.991111	591.539851
68.396863	10.735705	21133.823889	591.539851
70.925133	8.308835	25107.186667	591.886030
71.620653	10.041784	22716.372778	591.539851
74.005762	9.001236	25495.542222	592.232165
74.545599	9.348041	25180.003333	591.886030
75.705857	9.001236	24260.086111	592.232165
74.829796	8.654476	24078.044444	592.232165
74.086626	9.694890	22298.890556	591.886030
78.588775	9.346832	24243.095556	592.232165
80.593523	9.346832	26403.323333	592.232165
81.872678	9.346832	25692.147222	592.232165
83.155465	8.653357	13871.575000	592.578255
82.534272	9.000072	25446.997778	592.232165
83.483688	8.653357	30396.103889	592.578255
86.553361	9.345623	29121.812222	592.578255
87.032890	8.653357	29735.899444	592.578255
87.097101	9.346832	27825.675556	592.232165
86.148701	10.040486	27379.066667	592.232165
86.201473	10.387380	26716.435000	591.886030
87.791647	9.000072	26512.548333	592.578255
88.944261	8.652237	29075.695000	592.924300
89.377131	8.653357	27454.310556	592.578255
89.836806	9.693637	28667.921667	592.232165
93.815552	9.693637	29160.647778	592.232165
92.749569	8.998908	28454.326111	592.578255
93.681594	10.039188	27383.921111	592.232165
92.953029	9.346832	26177.591667	592.232165
92.307656	9.693637	26954.302778	592.232165
93.537476	8.653357	28981.033333	592.578255
96.557484	9.000072	28143.641667	592.232165
93.825060	9.346832	27087.800000	592.232165
94.507330	9.693637	28022.280556	591.886030
94.779547	9.693637	26813.523889	592.232165
96.862264	9.346832	29697.063889	592.232165
97.125803	9.000072	28784.428333	592.232165
