power (mW)	FWHM	peak value	peak location
0.164248	79.644455	917.490000	547.216422
0.166439	117.165992	885.936111	540.877741
0.182986	144.333566	949.043889	541.935148
0.207748	129.015159	902.926667	539.467270
0.231721	131.464229	963.607222	540.525187
0.265731	138.393935	978.170556	542.287532
0.289497	115.418373	883.508889	542.992172
0.320051	160.921950	917.490000	541.230253
0.372287	115.296812	861.663889	563.002209
0.421085	142.636599	929.626111	541.582722
0.509334	121.808985	878.654444	541.935148
0.575523	152.816152	944.189444	542.287532
0.621914	132.016950	939.335000	548.974707
0.688373	113.752571	973.316111	543.344427
0.765219	79.079226	1048.560000	539.467270
0.864251	94.117651	1063.123333	541.582722
1.004557	96.935185	1106.813333	569.989910
1.110843	118.421388	1206.329444	566.847607
1.204784	79.980346	1259.728333	542.639873
1.362024	104.989271	1300.991111	543.344427
1.468140	59.300448	1456.333333	540.525187
1.497257	50.069063	1565.558333	540.877741
1.618358	62.457228	1536.431667	546.864636
1.721681	41.442685	1582.548889	540.877741
1.879414	44.534478	1679.637778	541.230253
2.014424	38.656751	1851.970556	539.114546
2.088513	34.841459	1983.040556	565.799385
2.288769	37.614398	2043.721111	540.877741
2.463183	33.464733	2157.800556	539.467270
2.570475	33.802652	2334.987778	541.582722
2.703276	31.026624	2451.494444	539.819951
2.839783	29.292824	2555.865000	540.877741
2.901635	27.554444	2645.672222	538.761779
3.075564	27.207373	2786.451111	542.639873
3.254739	23.036158	3148.107222	564.401146
3.437261	22.343707	3186.942778	539.467270
3.564935	22.688554	3250.050556	538.761779
3.827194	21.645476	3429.665000	542.639873
3.943931	21.297695	3703.941111	542.287532
4.131670	19.210079	4048.606667	542.287532
4.522548	19.906128	4051.033889	564.401146
4.415955	16.422069	4866.580556	563.701765
4.578122	18.161131	4424.826111	540.525187
4.848607	16.770424	4839.881111	542.992172
4.823720	17.116595	4852.017222	542.639873
5.049796	16.071662	5257.363333	539.467270
5.363017	16.071662	5458.822778	564.051477
5.521092	16.071662	5555.911667	542.992172
5.755555	14.327439	6349.613333	542.639873
5.820495	15.376741	3614.133889	564.051477
6.074682	14.327439	6820.494444	542.287532
6.302385	14.327439	7029.235556	540.172591
6.386567	13.630245	7395.746111	539.467270
6.554389	12.582555	7958.861667	545.105066
6.897168	12.582555	8128.767222	563.701765
6.805555	12.584125	8478.287222	542.287532
7.065711	12.584125	7968.570556	542.639873
7.290857	12.582555	8339.935556	564.051477
7.449681	11.886493	9204.026667	563.701765
7.865478	12.233805	9390.922778	539.819951
7.861077	11.886493	10087.535556	544.400939
7.891379	11.537610	10609.388333	540.525187
8.205946	10.838364	11415.226111	563.352009
8.275530	10.838364	11660.375556	563.352009
8.667331	11.187290	10704.050000	543.696641
8.625842	11.187290	11221.048333	541.230253
8.740308	10.139117	12556.020556	563.352009
8.941717	10.140381	12951.657778	541.230253
9.009247	10.140381	13046.319444	540.172591
9.604112	10.489394	12699.226667	563.352009
9.459301	9.441046	14662.849444	540.877741
9.678713	10.139117	13245.351667	563.701765
9.859952	9.790103	14009.926667	563.701765
9.869117	9.441046	15230.819444	563.352009
9.973941	9.441046	14446.826667	539.819951
10.069245	10.489394	14082.743333	544.048811
10.165676	9.441046	14458.962778	542.287532
10.386347	9.441046	14832.755000	539.819951
10.782122	9.441046	15165.284444	540.172591
10.839784	9.791323	15391.016111	539.114546
10.603651	9.091945	17378.911111	563.352009
10.427239	9.790103	14961.397778	537.703224
10.860428	9.790103	15017.223889	540.172591
11.130549	9.441046	15908.014444	541.230253
11.391401	9.091945	16626.472222	540.877741
11.069136	9.441046	16624.045000	563.352009
10.926610	9.441046	16694.434444	563.352009
11.427711	8.741711	16051.220556	563.701765
11.715354	9.791323	16592.491111	563.701765
11.654909	9.441046	17459.009444	538.761779
11.785932	9.441046	16592.491111	539.467270
11.976933	9.091945	17832.801667	563.701765
11.709617	9.091945	18517.278333	542.639873
11.920447	9.090812	16318.215000	563.701765
11.772420	10.139117	7992.842778	538.056118
11.645924	9.790103	16827.931667	563.701765
11.932324	9.790103	15810.925556	538.761779
11.844589	9.790103	16852.203889	541.935148
11.927851	9.439869	16641.035556	563.701765
12.107477	9.790103	16194.426667	540.877741
