power (mW)	FWHM	peak value	peak location
0.153573	138.297980	934.480556	542.992172
0.089835	132.583446	900.499444	546.160937
0.098984	139.135792	876.227222	548.623136
0.086988	119.002655	900.499444	545.105066
0.103473	140.486582	934.480556	542.992172
0.128262	95.661762	932.053333	543.344427
0.175884	84.822472	922.344444	540.172591
0.222805	99.703936	1000.015556	543.696641
0.272294	152.705440	832.537222	542.992172
0.331354	129.101117	917.490000	539.114546
0.397292	147.061516	963.607222	540.525187
0.467351	143.520348	978.170556	543.696641
0.522568	140.932708	958.752778	541.935148
0.637940	137.894485	992.733889	539.819951
0.702514	133.960637	1082.541111	543.344427
0.808324	98.055693	1070.405000	541.582722
0.880322	141.139520	1135.940000	542.992172
0.988090	83.240440	1191.766111	546.160937
1.062109	89.135569	1264.582778	540.525187
1.188049	64.889976	1279.146111	543.696641
1.307677	69.288973	1483.032778	539.467270
1.378904	50.081801	1507.305000	540.172591
1.517952	58.338653	1512.159444	539.467270
1.614058	41.788281	1720.900556	542.639873
1.730346	40.405627	1703.910000	566.148836
1.907086	35.893459	1825.271111	544.400939
2.042203	31.727829	2021.876111	565.449891
2.149927	29.990254	2155.373333	541.230253
2.382403	31.034442	2206.345000	564.750771
2.437765	26.870383	2383.532222	541.582722
2.585837	27.214213	2390.813889	539.114546
2.692186	22.691400	2669.944444	564.051477
2.946976	24.429199	2718.488889	541.935148
3.028104	21.648188	3179.661111	544.400939
3.184214	22.343707	3106.844444	541.935148
3.379189	19.210079	3422.383333	541.935148
3.553423	19.558125	3699.086667	540.877741
3.671437	18.511538	3866.565000	538.056118
3.825757	16.772520	4410.262778	542.287532
3.946759	16.770424	4310.746667	546.160937
4.186610	16.770424	4432.107778	541.230253
4.313978	15.725228	4628.712778	539.467270
4.510955	15.725228	4966.096667	538.408970
4.695811	14.679635	5092.312222	541.230253
4.848077	13.631946	5830.187778	540.877741
5.151070	13.631946	5541.348333	563.352009
5.247366	12.934489	6150.581111	543.696641
5.434961	12.236857	6534.082222	563.002209
5.685487	11.886493	7211.277222	563.352009
5.695442	11.887975	7305.938889	543.344427
5.943420	11.537610	7288.948333	540.172591
6.049928	11.188685	7912.744444	543.344427
6.224156	11.188685	7801.092222	563.002209
6.577494	10.839715	8284.109444	563.352009
6.766005	10.839715	8946.741111	539.819951
6.865413	10.490701	9449.176111	563.002209
6.953887	10.140381	9434.612778	540.525187
7.246134	10.490701	8968.586111	539.114546
7.347603	9.791323	10293.849444	541.230253
7.492028	10.141644	10461.327778	540.877741
7.653534	9.442222	10776.866667	543.696641
7.967370	9.442222	10954.053889	540.172591
8.133410	9.792543	11272.020000	563.002209
8.295049	8.743889	12495.340000	541.582722
8.546328	9.093077	12376.406111	542.992172
8.552640	8.743889	12893.404444	544.400939
8.655670	8.743889	13400.693889	540.172591
8.808085	8.743889	13541.472778	563.002209
9.035599	9.093077	13075.446111	539.819951
9.309135	9.093077	13628.852778	542.992172
9.276030	8.743889	14769.647222	544.048811
9.445715	9.093077	13927.401111	563.002209
9.771661	8.393611	14689.548889	539.114546
9.727916	8.393611	15830.343333	541.230253
9.891701	8.743889	15607.038889	538.761779
9.827373	8.743889	16388.604444	544.400939
10.103349	8.044379	16131.318889	539.819951
9.888915	8.045380	17313.376111	540.525187
10.515156	8.393611	15781.798889	544.400939
10.586128	8.394656	16832.786111	540.877741
10.887510	8.394656	17405.610556	563.002209
11.056392	8.394656	18806.117778	539.819951
10.806394	8.045380	19204.182222	563.002209
11.304413	8.044379	19228.454444	540.172591
11.178956	8.044379	18051.251667	540.172591
10.998892	8.394656	18636.212222	540.525187
10.938457	8.044379	18733.301111	563.002209
11.234672	7.695103	19352.242778	540.172591
11.268135	7.695103	19917.785556	542.639873
11.128220	8.044379	18281.837778	540.172591
11.524259	7.695103	18976.023333	541.582722
11.362747	8.044379	20228.470000	539.467270
11.617381	8.394656	19427.486667	543.344427
11.453219	7.695103	20090.118333	563.002209
11.581127	7.695103	20934.791667	544.753024
12.002240	8.044379	19808.560556	543.696641
11.635015	7.695103	20483.328333	563.002209
11.967608	7.695103	21145.960000	563.002209
11.843421	7.695103	20340.122222	563.002209
11.577311	8.044379	20383.812222	539.819951
