power (mW)	FWHM	peak value	peak location
0.133192	17.917388	859.236667	539.114546
0.148886	146.492802	902.926667	540.172591
0.146246	144.558224	830.110000	540.877741
0.138776	87.004432	808.265000	539.819951
0.152163	102.269228	842.246111	542.992172
0.165577	98.922069	813.119444	539.819951
0.207488	95.439468	881.081667	543.696641
0.245610	107.047543	822.828333	541.935148
0.288087	124.247388	881.081667	542.992172
0.333770	126.875549	871.372778	566.148836
0.406576	98.561203	905.353889	539.467270
0.481851	98.806447	893.217778	539.467270
0.549764	93.826322	939.335000	598.800196
0.636468	121.439957	1036.423889	542.639873
0.731532	98.723005	1063.123333	542.992172
0.809608	99.991790	1148.076111	543.696641
0.918068	73.188659	1228.174444	542.992172
1.029355	81.365011	1315.554444	541.582722
1.126591	34.191999	1509.732222	540.525187
1.232807	41.081443	1577.694444	545.105066
1.300413	24.785954	1813.135000	541.582722
1.469792	32.070413	1796.144444	539.114546
1.523393	21.648188	2034.012222	545.457066
1.651883	19.908619	2165.082222	544.400939
1.782187	20.259156	2279.161667	562.652366
1.928230	18.167947	2470.912222	542.639873
2.077353	14.679635	2927.230000	544.400939
2.215172	13.284897	3055.872778	546.864636
2.380545	12.585695	3296.167778	540.525187
2.525313	11.539049	3713.650000	543.344427
2.589483	11.539049	3665.105556	538.761779
2.797333	10.492008	3973.362778	539.114546
3.015024	8.744977	4798.618333	540.877741
3.081687	9.094209	4927.261111	544.753024
3.234169	9.443398	4881.143889	540.172591
3.409734	8.743889	5305.907778	541.582722
3.610474	9.094209	5764.652778	539.819951
3.801651	8.045380	6614.180556	542.639873
3.832177	8.045380	6980.691111	538.761779
4.020043	8.394656	6701.560556	542.992172
4.183800	8.045380	7036.517222	539.819951
4.383937	8.045380	7225.840556	544.048811
4.568669	8.394656	8002.551667	542.992172
4.785408	7.695103	8684.601111	539.467270
4.888462	7.345783	9725.879444	541.935148
5.139545	7.345783	9696.752778	540.525187
5.153758	6.995549	11085.123889	538.761779
5.392941	7.345783	10208.896667	563.002209
5.480221	7.344869	10599.679444	563.352009
5.901820	6.995549	11975.914444	539.467270
5.899219	6.995549	12526.893889	540.172591
6.224317	6.995549	12558.447778	538.761779
6.210589	6.995549	12823.015000	563.352009
6.589281	7.344869	12808.451667	543.696641
6.692597	6.995549	15247.810000	563.352009
6.967390	6.995549	15007.515000	541.935148
6.903104	6.645358	15995.394444	563.352009
7.421626	6.295211	16500.256667	540.172591
7.544309	6.994678	15900.732778	540.525187
7.704491	6.295211	17495.417778	539.114546
7.658720	6.295211	19150.783333	563.701765
8.062974	6.644531	19000.295556	543.696641
8.214714	6.644531	20126.526667	541.230253
8.261890	6.644531	20213.906667	541.582722
8.449583	6.644531	19662.927222	543.696641
8.489519	6.644531	21274.602778	544.400939
8.568503	5.945108	21631.404444	539.114546
8.931127	6.644531	21454.217222	540.877741
9.121958	5.945108	24005.227778	539.467270
9.185195	6.644531	23264.925000	544.753024
9.454233	6.294427	23354.732222	564.051477
9.346128	6.294427	25012.525000	543.344427
9.826149	6.294427	25599.912778	564.051477
9.601178	6.294427	26027.103889	564.051477
10.044502	6.294427	24942.135556	564.051477
10.158216	6.294427	27379.066667	546.512808
10.129342	6.294427	28990.742222	538.056118
10.429600	6.294427	27544.117778	540.877741
10.409573	5.944367	29563.566667	564.051477
10.328329	6.643703	27813.539444	564.051477
10.865272	5.944367	28823.263889	564.051477
10.831746	5.944367	30158.236111	540.172591
10.814414	5.944367	30772.323333	564.051477
11.134546	5.944367	31476.217778	564.401146
11.109632	5.944367	30308.723889	544.753024
11.204223	5.944367	32857.307222	540.877741
11.154159	5.944367	33942.275556	542.639873
11.144961	6.643703	30978.637222	539.467270
11.428517	6.293643	31910.690556	564.401146
11.472154	6.293643	32660.702222	564.401146
11.702801	6.293643	32774.781667	564.401146
11.368606	6.293643	34779.667222	564.401146
11.434211	6.293643	31566.025000	540.877741
11.778595	6.293643	32398.562222	540.172591
11.567334	6.293643	32109.722778	564.401146
11.874559	6.293643	32995.658889	540.172591
11.705116	5.594350	35908.325556	564.401146
11.932787	6.293643	34794.230556	547.919865
11.832084	6.293643	35265.111667	564.401146
12.144674	6.293643	34932.582222	544.753024
