power (mW)	FWHM	peak value	peak location
-0.199710	19.363729	37.379222	0.000000
-0.196110	28.992037	30.097556	0.000000
-0.208003	28.992037	30.097556	0.000000
-0.211552	98.773678	25.243111	0.000000
-0.157984	98.773678	25.243111	0.000000
-0.157844	97.937967	38.350111	0.000000
-0.131687	41.701360	36.893778	0.000000
-0.009046	15.630165	68.933111	0.000000
0.147098	3.828994	121.846556	0.000000
0.154570	11.843292	142.235222	0.000000
0.379807	14.280701	201.944889	0.000000
0.388729	28.534021	233.013333	0.000000
0.442405	22.287499	264.567222	0.000000
0.805131	27.131812	429.618333	574.522524
0.990461	30.268090	503.405889	575.567456
1.196890	31.643594	631.077778	574.174125
1.441579	30.963889	686.903889	573.825682
1.650454	26.103208	841.275222	574.174125
2.092981	29.922090	992.248444	573.825682
2.133365	32.692993	1048.560000	573.825682
2.532501	26.109826	1342.253889	573.477195
2.862204	27.495349	1536.917111	573.128664
3.161332	25.760070	1795.173556	572.780089
3.614559	25.063865	2001.972889	572.780089
3.856595	24.717328	2213.626667	572.780089
4.218685	22.978155	2547.612444	572.780089
4.917436	21.244131	2931.113556	572.431471
4.929402	20.200628	2994.706778	572.780089
5.619967	19.156991	3629.668111	572.780089
5.651504	19.853601	3608.794000	572.780089
5.860721	17.420966	4335.018889	572.780089
6.860963	16.376751	5191.828333	572.431471
7.625270	16.376751	5561.737000	572.431471
7.826035	15.330466	6213.688889	572.780089
8.420638	14.984886	6737.968889	572.431471
8.558737	14.635479	7153.994778	572.431471
9.297674	13.590951	8244.788444	572.780089
9.754816	13.940315	8558.871000	572.431471
10.046153	12.895610	9577.818889	572.431471
10.821918	12.546290	10440.453667	572.431471
11.642438	12.547873	11084.153000	572.431471
11.914859	12.198553	11648.239444	572.431471
12.227742	11.850772	12157.470667	572.431471
12.986304	11.850772	13582.735556	572.431471
13.831995	11.502946	14600.227111	572.431471
14.669774	11.502946	14035.169778	572.431471
14.695412	11.153670	16128.891667	572.780089
15.654558	11.153670	17357.551556	572.780089
15.830162	11.153670	17880.375222	572.780089
16.871250	10.456568	19483.798222	572.780089
16.799734	11.153670	19196.900556	572.780089
17.328325	10.456568	20913.917556	572.780089
18.474627	10.456568	22254.229667	572.780089
18.459999	11.153670	22601.322444	572.780089
20.136518	10.805800	25117.866444	572.780089
20.211836	10.456568	24954.271667	572.780089
20.782595	10.107379	26908.671000	572.780089
21.352627	10.107379	28254.323000	573.128664
22.521416	10.456568	30340.277778	572.780089
22.588132	10.107379	30285.422556	573.128664
23.280421	10.456568	30604.845000	572.780089
23.880011	10.107379	32950.027111	573.128664
24.309107	10.456568	33338.868111	572.780089
25.807621	10.107379	36228.233444	573.128664
25.584263	10.107379	36876.301778	573.128664
25.853332	10.107379	35639.874778	573.128664
25.625650	9.758235	37367.571556	573.128664
25.978039	10.107379	38054.475444	573.128664
28.029500	10.107379	40303.054111	573.128664
28.299230	10.804438	39464.691556	573.128664
28.401877	9.758235	42829.792444	573.477195
28.919947	9.758235	43667.669556	573.477195
29.248952	10.455249	43812.817444	573.128664
30.516253	10.456568	45666.729778	573.128664
30.277285	10.455249	45625.952444	573.128664
31.702888	10.107379	48727.942444	573.128664
31.696297	10.455249	46401.692667	573.128664
31.734208	10.804438	44878.368000	573.128664
32.202319	10.455249	47703.654667	573.128664
32.687209	10.106104	50369.230111	573.477195
33.575005	10.455249	50987.200889	573.477195
34.025485	10.455249	50407.094778	573.477195
33.441894	10.803075	49047.850333	573.477195
33.753207	10.455249	52108.092111	573.477195
34.891991	10.455249	51574.103222	573.477195
35.377750	10.803075	52916.357111	573.477195
35.608377	10.803075	53806.176778	573.477195
35.988310	10.803075	53006.649778	573.477195
35.834912	10.803075	53824.623667	573.477195
35.940905	10.803075	54835.804444	573.477195
35.966265	11.152263	53818.312889	573.477195
37.511469	10.803075	51063.901111	573.477195
37.000291	11.150856	54947.942111	573.477195
37.138645	11.150856	55468.824000	573.477195
37.799220	11.150856	56411.071667	573.477195
38.162811	11.500045	55767.372333	573.477195
38.575626	11.150856	56063.493444	573.825682
38.485850	11.500045	56748.941000	573.477195
38.452552	11.500045	55624.166222	573.477195
39.258736	11.847782	56002.812889	573.477195
39.632910	11.847782	56842.631778	573.477195
39.309872	11.498593	57554.293333	573.825682
39.221855	11.498593	56730.008667	573.825682
39.172579	11.498593	56637.288778	573.825682
39.477066	11.498593	56970.303667	573.825682
