power (mW)	FWHM	peak value	peak location
0.329770	18.795594	33.981111	0.000000
0.316286	23.070769	12.136111	0.000000
0.291857	18.099468	16.990556	0.000000
0.111550	74.224320	33.981111	0.000000
0.073929	15.830296	14.563333	0.000000
0.076005	47.227251	24.272222	0.000000
0.124512	6.107709	46.117222	0.000000
0.140989	37.713209	21.845000	0.000000
0.563071	33.296384	50.971667	0.000000
0.980754	54.704469	29.126667	0.000000
0.708935	14.659442	55.826111	0.000000
0.776322	19.843553	75.243889	0.000000
1.022571	22.312841	77.671111	0.000000
1.204607	14.264425	133.497222	0.000000
1.560377	7.672021	174.760000	0.000000
1.928613	16.749427	172.332778	0.000000
2.430964	8.706660	257.285556	0.000000
2.741609	13.261648	308.257222	0.000000
3.462353	16.724133	354.374444	0.000000
3.705733	20.931474	480.590000	566.847607
4.510123	17.781713	461.172222	573.128664
5.125017	24.751706	601.951111	572.780089
5.365178	19.185998	643.213889	572.431471
6.166226	21.254873	757.293333	569.989910
7.084239	22.660046	798.556111	572.431471
7.146816	20.576149	905.353889	569.291927
8.404743	24.395405	985.452222	569.640940
8.839350	23.360210	1089.822778	569.291927
10.016825	22.318461	1296.136667	568.942870
10.904057	26.843356	1417.497778	0.000000
11.346551	21.982176	1837.407222	563.701765
11.873906	21.637332	1922.360000	564.051477
12.605328	19.548326	2199.063333	563.352009
13.896310	17.462632	2764.606111	563.352009
15.118704	16.415910	3179.661111	563.002209
15.136344	11.536172	4196.667222	563.002209
16.413585	9.792543	5155.420000	562.302480
17.705837	8.045380	6776.804444	562.302480
18.078893	6.647839	9684.616667	562.302480
19.169173	7.696060	8793.826111	562.302480
19.880196	7.697018	9599.663889	562.302480
22.169467	7.697018	10041.418333	562.302480
24.176527	6.647839	14201.677222	562.302480
23.687540	6.647839	16179.863333	562.302480
25.750045	7.346697	13963.809444	562.302480
24.850768	6.647839	19361.951667	562.302480
27.288171	6.998160	17230.850556	561.952550
28.028210	6.647839	20645.952222	562.302480
31.433638	6.997290	18706.601667	562.302480
31.787951	6.997290	23124.146111	562.302480
32.016705	7.347611	22002.769444	562.302480
32.437413	6.647839	24898.445556	562.302480
35.033383	6.997290	22172.675000	562.302480
35.325345	6.298345	27133.917222	562.302480
36.501266	7.347611	24915.436111	562.302480
37.240876	6.998160	25369.326667	562.302480
38.233061	7.347611	24138.725000	562.302480
40.779627	7.347611	24667.859444	562.302480
41.524075	6.997290	23170.263333	562.302480
39.814840	90.927584	41.262778	0.000000
43.485712	13.721219	21.845000	0.000000
43.096033	1.054971	29.126667	0.000000
45.723430	98.886051	33.981111	0.000000
49.250492	33.785576	16.990556	0.000000
47.863740	94.054327	12.136111	0.000000
50.086126	27.200527	14.563333	0.000000
49.552190	0.332560	12.136111	0.000000
53.484035	22.838004	24.272222	0.000000
55.994944	6.627922	21.845000	0.000000
54.077317	40.602898	36.408333	0.000000
56.167239	119.555044	7.281667	0.000000
57.253796	17.602724	38.835556	0.000000
57.422310	55.537036	70.389444	0.000000
60.982003	16.409744	21.845000	0.000000
56.990566	3.004934	14.563333	0.000000
60.546800	31.312997	16.990556	0.000000
60.279943	24.339827	16.990556	0.000000
61.962851	70.316805	21.845000	0.000000
65.638023	65.728166	55.826111	0.000000
66.785112	2.336830	7.281667	0.000000
65.698132	9.125747	26.699444	0.000000
67.296629	15.022360	4.854444	0.000000
68.714732	77.058878	4.854444	0.000000
65.811118	59.591952	14.563333	0.000000
69.856479	51.577267	55.826111	0.000000
69.149745	84.292397	36.408333	0.000000
71.947683	2.820603	14.563333	0.000000
69.848346	63.264198	12.136111	0.000000
70.169056	48.465555	24.272222	0.000000
73.141867	111.636145	19.417778	0.000000
72.374957	53.430290	48.544444	0.000000
75.289361	16.137573	33.981111	0.000000
72.125329	125.635839	31.553889	0.000000
78.240426	122.462350	16.990556	0.000000
74.834588	57.544557	7.281667	0.000000
69.762521	2.075867	31.553889	0.000000
77.736716	12.601361	16.990556	0.000000
79.448369	117.453250	14.563333	0.000000
72.270370	7.343954	7.281667	0.000000
80.075022	23.603933	38.835556	0.000000
