power (mW)	FWHM	peak value	peak location
1.466632	135.512850	3985.498889	540.877741
1.588882	134.330096	4126.277778	544.048811
1.908361	124.126190	4148.122778	541.230253
2.263996	123.626572	4007.343889	542.639873
2.760630	43.346828	4230.648333	545.105066
3.450909	133.677996	4043.752222	543.344427
4.555692	69.369255	4135.986667	570.338836
7.640315	50.439179	4068.024444	543.344427
7.436162	65.224391	4036.470556	539.114546
7.833053	53.869444	4043.752222	567.895435
8.304800	46.259304	3970.935556	628.324123
9.217491	51.108835	4053.461111	542.287532
10.655628	55.925972	4065.597222	538.761779
12.329976	42.452428	3917.536667	538.761779
14.414081	43.838667	4072.878889	544.753024
16.047250	43.488000	4072.878889	568.244624
17.709906	39.683891	4400.553889	542.639873
19.261955	39.688918	4764.637222	567.895435
21.478668	39.343277	5196.682778	540.525187
23.849950	36.913193	5694.263333	569.291927
25.840002	35.183192	6043.783333	542.992172
27.647964	36.571908	6361.749444	568.244624
29.813923	36.567283	6570.490556	568.244624
32.682394	35.529282	7123.897222	568.244624
36.311665	34.144654	7842.355000	567.546203
37.940528	34.486520	8063.232222	541.935148
39.391589	35.870790	8371.489444	568.244624
42.382506	33.101534	8815.671111	542.639873
46.411069	33.101534	9529.274444	567.895435
49.588288	33.447848	10019.573333	567.895435
52.885304	32.062325	10449.191667	567.895435
54.780487	31.715832	10798.711667	567.895435
59.710041	31.715832	11631.248889	567.895435
62.082295	31.715832	11941.933333	567.895435
66.818611	32.408773	12699.226667	567.895435
69.454045	32.408773	13344.867778	567.895435
72.087167	32.058279	12837.578333	567.895435
75.770204	30.668351	14119.151667	567.895435
80.721138	31.018801	14636.150000	568.244624
83.333900	30.325593	15286.645556	567.546203
86.855027	30.325593	15949.277222	543.344427
90.564170	30.325593	16410.449444	567.895435
94.510714	29.632207	17017.255000	567.546203
95.832767	29.978922	17330.366667	567.895435
102.251989	29.978922	18235.720556	567.895435
104.979856	29.285447	18789.127222	567.546203
110.035762	29.285447	19643.509444	567.895435
115.345628	30.325593	19905.649444	567.546203
116.821541	30.325593	19905.649444	567.546203
120.601035	28.591793	20908.092222	542.639873
128.348160	29.285447	21762.474444	567.546203
125.648559	28.244899	21716.357222	567.546203
135.568890	28.938642	23364.441111	543.696641
136.690343	28.938642	23505.220000	567.546203
136.832940	27.894448	24146.006667	567.546203
146.028749	27.550978	24995.534444	567.546203
143.761759	28.591793	25080.487222	567.196927
149.080635	28.244899	26053.803333	567.196927
151.889701	27.550978	25058.642222	567.546203
155.728555	27.547510	27124.208333	567.196927
163.493806	27.547510	28568.405556	567.196927
167.317700	27.550978	28522.288333	567.196927
170.020224	27.897961	29517.449444	567.196927
172.841246	26.506428	30296.587778	567.196927
177.100860	27.203950	30238.334444	567.196927
181.031937	26.853500	31170.387778	567.196927
181.958405	27.547510	31058.735556	567.196927
187.193951	27.203950	32129.140556	567.196927
189.565553	26.853500	32937.405556	567.196927
197.346601	26.159312	34260.241667	567.196927
196.556910	26.506428	34488.400556	567.196927
199.160120	26.506428	34711.705000	567.196927
206.842506	26.856879	35769.973889	567.196927
209.766324	26.159312	36469.013889	567.196927
210.449659	25.812151	36886.496111	566.847607
215.829606	26.509762	37114.655000	566.847607
213.433593	26.159312	38131.661111	567.196927
218.307180	25.812151	38602.542222	566.847607
227.606949	25.464946	39236.047222	567.196927
226.502214	25.812151	40100.138333	567.196927
226.093969	25.812151	39818.580556	567.196927
226.577814	25.464946	38010.300000	566.847607
230.266852	25.812151	40787.042222	567.196927
232.768641	25.464946	40915.685000	567.196927
240.774336	25.464946	42015.216667	567.196927
240.709214	25.812151	42000.653333	567.196927
244.361697	25.812151	42452.116667	567.196927
240.450585	25.464946	42767.655556	567.196927
242.382544	25.812151	43187.565000	567.196927
244.167518	25.464946	43561.357222	567.196927
247.277459	25.464946	44398.748889	567.196927
245.421054	25.464946	44185.153333	567.196927
252.705160	25.464946	44957.010000	567.196927
248.310203	25.117697	44801.667778	567.196927
251.599471	25.117697	44983.709444	567.196927
254.482985	25.464946	45457.017778	567.196927
252.423110	25.117697	46085.668333	567.196927
258.889701	25.464946	46347.808333	567.196927
251.610484	25.464946	45488.571667	567.196927
254.550414	25.117697	46119.649444	567.196927
255.717686	25.117697	46818.689444	567.196927
261.036516	25.117697	47466.757778	567.196927
260.730344	24.770403	47575.982778	567.196927
262.129237	24.770403	45847.800556	567.196927
258.186971	24.770403	43590.483889	567.196927
