power (mW)	FWHM	peak value	peak location
0.399630	128.414763	4029.188889	542.287532
0.574442	120.976937	4012.198333	543.344427
1.022802	144.909538	4019.480000	542.992172
1.262532	78.803905	3992.780556	543.696641
1.583681	108.465953	4072.878889	542.639873
2.287274	128.721391	4138.413889	540.172591
2.809232	124.932996	4043.752222	542.992172
3.564286	119.779034	4075.306111	553.541223
4.544247	38.876595	4070.451667	544.400939
5.483934	68.017898	3936.954444	542.992172
6.761144	147.230553	3990.353333	542.992172
7.916387	61.467520	3997.635000	543.696641
9.318043	50.738556	4024.334444	543.344427
10.811987	57.337248	4043.752222	566.498243
12.656413	49.361141	4102.005556	544.048811
14.122756	45.201552	4046.179444	542.639873
15.863097	52.101940	4099.578333	542.639873
17.763278	40.715245	4085.015000	542.992172
19.805752	35.187638	4068.024444	539.467270
21.395668	37.600119	4145.695556	542.992172
23.825107	31.373251	4031.616111	543.344427
26.185921	34.823845	4182.103889	542.992172
28.827510	111.209723	4075.306111	542.287532
31.557571	29.635941	4046.179444	542.992172
33.222555	32.408773	4075.306111	538.408970
35.054953	27.207373	4085.015000	542.287532
39.213092	27.557910	4097.151111	544.400939
42.120446	26.165891	4492.788333	566.498243
44.530362	26.169178	4682.111667	542.639873
47.376985	25.127164	4956.387778	543.696641
50.828664	24.432265	5085.030556	543.344427
54.323400	24.779737	5422.414444	539.819951
56.169857	25.821884	5536.493889	566.148836
60.501834	25.130317	5856.887222	542.287532
64.123445	24.782846	6002.520556	566.148836
65.643096	24.782846	6126.308889	542.992172
69.234217	24.435330	6514.664444	542.639873
70.745498	24.087770	6626.316667	543.696641
75.118436	24.435330	6703.987778	540.525187
80.485176	24.087770	7230.695000	543.344427
83.663239	23.392517	7461.281111	540.525187
88.622794	23.044824	7764.683889	565.449891
90.997195	22.697087	7983.133889	542.992172
94.116293	23.044824	8123.912778	542.639873
99.920167	23.743141	8495.277778	542.992172
101.532252	21.653611	8759.845000	541.582722
106.550555	20.609737	9165.191111	538.408970
112.632057	20.957739	9893.357778	565.449891
113.698479	20.261691	10325.403333	565.449891
118.409959	19.217287	11306.001111	542.992172
119.261537	19.565466	11327.846111	565.449891
123.502058	18.869064	11910.379444	565.449891
129.417190	18.520797	12694.372222	542.287532
132.970699	18.172487	13063.310000	541.935148
139.968179	17.127290	14323.038333	542.992172
143.543200	16.428223	14963.825000	543.344427
145.909609	16.079692	15793.935000	544.048811
148.861343	15.033835	16767.251111	543.344427
150.938484	15.382498	17245.413889	542.639873
156.032457	14.685129	18442.034444	543.696641
158.567086	13.987584	19408.068889	559.852058
163.753983	13.289864	20461.483333	543.344427
168.301316	12.241431	21594.996111	544.400939
170.376583	12.241431	21553.733333	543.344427
170.453510	12.241431	22592.584444	542.639873
180.062907	12.590401	22544.040000	543.344427
178.468996	3.853050	23818.331667	543.344427
182.544173	10.495925	25624.185000	543.344427
186.062057	5.252857	26626.627778	559.852058
191.271340	3.853050	25541.659444	542.287532
197.685696	4.203067	27017.410556	542.287532
198.473525	10.495925	28381.509444	540.172591
205.578096	4.902970	28551.415000	559.852058
206.692354	3.502990	29172.783889	559.501824
206.741109	9.797417	30112.118889	542.287532
213.417574	7.700843	32306.327778	559.852058
212.461175	5.952499	31131.552222	559.501824
220.678886	5.252857	31983.507222	559.501824
219.208770	9.098734	32658.275000	542.992172
226.550921	5.602700	31857.291667	542.992172
219.438435	8.749326	33257.798889	559.501824
227.227318	8.050381	33947.130000	542.287532
230.839662	8.050381	34337.912778	542.287532
234.793919	7.350349	36141.338889	559.852058
232.360373	8.399876	36874.360000	542.639873
235.114666	2.802392	38621.960000	542.992172
238.725124	7.351262	37901.075000	559.501824
240.762718	7.351262	37590.390556	559.852058
249.063410	3.502990	38592.833333	559.852058
248.187221	8.050381	39151.094444	559.852058
249.737339	3.152496	40471.503333	559.852058
255.029509	7.700843	39748.191111	559.852058
245.768041	7.351262	37731.169444	559.852058
242.783129	7.000768	39638.966111	543.344427
247.712526	3.152496	40056.448333	559.852058
249.437569	3.152496	41466.664444	559.852058
262.637110	3.152496	43430.287222	559.852058
253.990316	3.152496	41250.641667	559.852058
263.162028	7.000768	41966.672222	543.344427
265.014428	3.152496	43345.334444	559.852058
257.238117	6.301474	42447.262222	542.992172
259.241253	3.152496	43789.516111	559.852058
262.873247	3.152496	43304.071667	559.852058
260.096206	3.152496	45452.163333	543.344427
255.970401	3.152496	45772.556667	542.992172
