wavelength	0.005479	0.005545

178.106480	-11.246130	-16.586019
178.493382	-1.540275	-6.462479
178.880256	-1.540275	-6.462479
179.267103	-19.663534	-6.138850
179.653922	-11.896423	-11.721461
180.040713	2.424188	-13.905961
180.427476	27.990929	57.049836
180.814211	-15.699071	-4.116164
181.200918	16.582984	20.156058
181.587598	12.052170	22.664188
181.974250	-27.268830	-38.016368
182.360873	4.851410	24.444150
182.747469	40.531577	46.289150
183.134037	-28.806071	-43.437164
183.520577	2.828725	33.101243
183.907089	15.854818	27.680447
184.293573	-4.048404	-11.155109
184.680029	38.994336	17.567021
185.066457	-6.799256	-8.808794
185.452857	-2.834793	-1.446220
185.839229	-3.320238	6.078169
186.225573	-26.864293	-40.281775
186.611889	11.000373	1.466447
186.998176	-3.239330	-16.656812
187.384436	-16.589053	-32.433757
187.770668	-3.724775	6.159076
188.156871	10.595836	8.343576
188.543046	-7.041978	5.754539
188.929193	-5.423830	6.401799
189.315312	6.065022	3.084595
189.701403	11.324003	34.800299
190.087466	-35.440478	-19.731294
190.473500	51.939522	39.492928
190.859506	-7.446516	-42.223553
191.245484	18.282040	26.466836
191.631434	-15.699071	-38.825442
192.017355	-23.223460	-44.650775
192.403248	8.734966	13.521650
192.789113	23.621929	12.388947
193.174949	-2.753886	-27.336590
193.560757	1.857836	-10.831479
193.946537	2.990540	-1.931664
194.332288	7.683170	21.936021
194.718011	-33.903238	-22.077609
195.103705	-2.025719	-27.336590
195.489371	-54.777349	-44.408053
195.875009	-54.049182	-36.883664
196.260618	17.068429	15.787058
196.646199	-12.867312	-45.217127
197.031751	-1.297553	7.858132
197.417275	-14.970904	-13.096887
197.802771	-33.903238	-36.640942
198.188237	-13.514571	-6.543387
198.573676	-15.132719	1.304632
198.959085	1.938744	17.162484
199.344466	-0.488478	16.191595
199.729819	-5.828367	5.269095
200.115143	-40.294923	-16.575905
200.500438	-14.404553	-5.006146
200.885705	39.884318	33.020336
201.270943	-3.482053	-20.297646
201.656152	28.880910	23.958706
202.041333	23.541022	-1.041683
202.426485	-26.297941	-48.453424
202.811608	10.919466	6.239984
203.196703	-21.767127	1.223725
203.581769	10.676744	41.920150
203.966806	-27.835182	-10.426942
204.351814	-8.336497	15.139799
204.736794	38.994336	80.917521
205.121745	20.951984	3.893669
205.506667	29.770892	13.198021
205.891560	3.152355	-5.410683
206.276424	-15.456349	-13.339609
206.661260	-1.782997	-5.734312
207.046066	0.239688	13.764373
207.430844	-11.006441	9.557188
207.815593	19.657466	8.909928
208.200313	4.527781	20.479688
208.585003	-60.117238	-83.729053
208.969665	9.463133	26.385928
209.354299	-5.181108	-23.453035
209.738903	-27.187923	13.278928
210.123478	15.207559	7.129965
210.508024	15.531188	30.269484
210.892541	29.366355	29.784039
211.277029	4.123244	13.764373
211.661488	21.922873	32.049447
212.045918	44.738762	18.699725
212.430318	16.906614	-6.947924
212.814690	33.249910	18.376095
213.199033	-34.065053	-10.346035
213.583346	46.680540	40.059280
213.967631	-6.556534	-9.536961
214.351886	-5.504738	0.981002
214.736112	16.906614	31.644910
215.120309	28.152744	29.298595
215.504476	-13.595478	-1.284405
215.888615	56.955781	40.382910
216.272724	-28.401534	-3.954350
216.656804	-24.679793	15.787058
217.040854	2.100559	58.101632
217.424876	45.305114	11.741688
217.808868	3.961429	5.107280
218.192830	-22.738016	-7.999720
218.576764	23.702836	38.441132
218.960668	42.068818	42.729225
219.344543	31.550855	53.328095
219.728388	38.023447	31.644910
220.112204	37.861633	9.395373
220.495991	3.961429	2.194613
220.879748	-19.339904	-33.970998
221.263476	-25.488867	-26.042072
221.647174	16.582984	31.564002
222.030843	-0.893016	8.019947
222.414482	38.508892	38.926576
222.798092	36.405299	29.541317
223.181672	46.761447	19.751521
223.565223	14.641207	17.243391
223.948744	11.243096	19.427891
224.332236	-5.100201	4.540928
224.715698	-1.621182	-12.368720
225.099131	20.223818	17.728836
225.482534	-15.779978	1.385539
225.865907	31.308133	46.531873
226.249251	38.508892	31.159465
226.632565	-7.284701	-13.420516
227.015850	-19.016275	-14.715035
227.399104	-54.130090	-37.450016
227.782329	21.922873	18.699725
228.165525	7.764077	25.657762
228.548691	40.369762	20.884225
228.931827	-58.984534	-40.605405
229.314933	-14.566367	-31.624683
229.698009	-14.566367	-34.537350
230.081056	-18.611738	-39.553609
230.464073	45.871466	66.192373
230.847060	-25.731590	-31.381961
231.230017	38.266170	8.100854
231.612944	9.382225	2.275521
231.995842	19.414744	16.677039
232.378709	2.343281	-0.637146
232.761547	-26.459756	0.657373
233.144355	4.932318	7.291780
233.527133	11.000373	24.525058
233.909881	-40.861275	-24.909368
234.292599	-33.822330	-34.375535
234.675287	9.948577	13.278928
235.057945	-3.077516	-24.990275
235.440574	-10.925534	-6.624294
235.823172	-2.187534	-19.974016
236.205740	-39.890386	-18.113146
236.588278	-7.770145	-28.712016
236.970786	2.181466	-8.323350
237.353264	6.307744	35.366650
237.735712	-15.779978	-28.469294
238.118130	-15.618164	-3.064368
238.500517	-0.003034	-13.663238
238.882875	29.366355	26.871373
239.265202	10.353114	27.761354
239.647499	-48.790201	-49.100683
240.029767	-35.035941	-20.054924
240.412003	24.269188	2.599150
240.794210	4.285059	17.567021
241.176387	15.693003	-2.093479
241.558533	-6.961071	-0.960775
241.940649	-16.427238	4.379113
242.322734	-16.750867	8.424484
242.704790	22.003781	36.013910
243.086815	-4.129312	4.298206
243.468810	-4.048404	0.981002
243.850774	-2.753886	8.100854
244.232709	36.243484	29.136780
244.614612	-14.242738	-15.524109
244.996486	27.343670	29.460410
245.378329	2.505096	-11.640553
245.760142	33.978077	42.891039
246.141924	-4.291127	-11.155109
246.523676	-39.647664	-34.618257
246.905397	-7.041978	-16.575905
247.287088	29.851799	-1.769850
247.668748	9.220410	-29.440183
248.050378	18.524762	-8.727887
248.431978	-26.136127	-23.291220
248.813547	-18.449923	19.832428
249.195085	27.100947	14.654354
249.576593	-2.996608	16.596132
249.958070	-2.025719	1.547354
250.339517	-4.372034	2.841873
250.720933	38.751614	29.460410
251.102318	3.475984	25.981391
251.483673	2.990540	-28.631109
251.864997	-7.446516	6.563613
252.246291	16.421170	11.256243
252.627554	-7.122886	-16.656813
253.008786	-11.815516	4.379113
253.389987	12.942151	3.408225
253.771158	16.421170	-9.617868
254.152298	-49.275645	-29.925627
254.533408	-43.450312	-32.595572
254.914486	28.071836	6.644521
255.295534	-6.071090	-33.081016
255.676551	-12.624590	19.104262
256.057537	-6.475627	18.214280
256.438492	-1.782997	5.430910
256.819417	28.800003	44.023743
257.200310	4.689596	0.252836
257.581173	-10.278275	-12.045090
257.962005	6.065022	31.968539
258.342806	-26.217034	-16.818627
258.723576	23.945559	-13.258701
259.104315	38.185262	4.379113
259.485023	-9.792830	-20.783090
259.865700	-13.271849	1.709169
260.246347	58.573929	37.874780
260.626962	26.049151	33.748502
261.007546	65.774688	54.056262
261.388099	-3.805682	-19.893109
261.768621	2.828725	-3.792535
262.149112	-10.520997	7.129965
262.529573	3.233262	12.146225
262.910002	-9.064664	-2.578924
263.290399	21.841966	22.502373
263.670766	23.379207	32.534891
264.051102	-21.928941	-19.326757
264.431406	-11.330071	-12.368720
264.811680	10.353114	9.799910
265.191922	24.431003	30.431299
265.572133	-26.702478	-22.886683
265.952313	-9.388293	7.049058
266.332461	-49.761090	-27.255683
266.712578	-17.559941	24.120521
267.092665	30.256336	44.994632
267.472719	-20.715330	-17.627701
267.852743	-30.262404	-19.650387
268.232735	-56.314590	-37.207294
268.612696	-19.987164	-28.550201
268.992626	-21.605312	-20.459461
269.372524	39.803410	27.599539
269.752391	80.338022	87.794650
270.132226	7.278633	40.463817
270.512030	-4.614756	4.540928
270.891803	17.472966	22.745095
271.271545	-20.229886	-3.549813
271.651255	-18.207201	-17.061350
272.030933	3.799614	-21.511257
272.410580	6.631373	9.961725
272.790196	20.385633	15.706150
273.169780	-4.210219	12.227132
273.549332	52.586781	22.664188
273.928853	5.822299	19.346984
274.308343	25.401892	23.877799
274.687800	0.401503	36.742076
275.067227	-14.647275	-9.860590
275.446622	4.608688	-27.498405
275.825985	-4.129312	8.667206
276.205316	20.062003	-15.200479
276.584616	-18.126293	-12.125998
276.963885	9.463133	16.191595
277.343121	-36.815904	-20.863998
277.722326	-23.547090	-5.653405
278.101499	-38.434053	-21.996701
278.480641	70.548225	61.257021
278.859751	39.156151	31.806725
279.238829	-33.498701	-19.003127
279.617875	0.239688	16.677039
279.996890	-17.155404	-41.980831
280.375873	-33.579608	-30.249257
280.754824	-20.715330	-32.191035
281.133743	-36.734997	-21.511257
281.512631	-62.787182	-53.631498
281.891486	2.909633	-5.653405
282.270310	-10.035553	-5.491590
282.649102	-11.653701	-6.138850
283.027862	13.993947	28.004076
283.406590	-33.498701	-52.741516
283.785286	-18.692645	-12.935072
284.163950	-27.754275	-57.676868
284.542582	4.770503	6.887243
284.921183	7.440447	15.867965
285.299751	29.528170	32.858521
285.678287	14.964836	-12.287812
286.056792	15.693003	3.974576
286.435264	34.706244	19.104262
286.813704	-14.566367	-31.867405
287.192112	-34.065053	-44.569868
287.570489	19.091114	8.586299
287.948833	-25.165238	18.699725
288.327145	-10.035553	3.731854
288.705425	-3.158423	8.909928
289.083672	14.560299	41.920150
289.461888	-23.466182	-9.698775
289.840071	-16.508145	-23.372127
290.218223	-12.543682	-36.883664
290.596342	-3.401145	5.026373
290.974429	21.680151	2.437336
291.352483	-18.369016	-27.417498
291.730506	-35.925923	-28.469294
292.108496	-23.951627	-23.048498
292.486454	-8.336497	14.897076
292.864379	-10.359182	14.816169
293.242273	-35.278664	-23.695757
293.620134	-6.718349	-26.446609
293.997963	-17.964478	-10.750572
294.375759	20.385633	35.366650
294.753523	-1.782997	-6.947924
295.131255	-19.258997	-23.453035
295.508954	-34.307775	-19.812201
295.886621	24.188281	28.004076
296.264255	3.395077	-1.527127
296.641857	9.786762	-3.630720
297.019427	20.062003	16.596132
297.396964	34.139892	4.460021
297.774469	8.087707	15.058891
298.151941	-7.041978	-12.692350
298.529380	-47.576590	-25.313905
298.906788	-5.181108	7.615410
299.284162	-1.540275	-0.879868
299.661504	1.534207	-1.688942
300.038814	-15.132719	-10.103312
300.416090	-24.922516	-5.815220
300.793335	-20.148978	-30.168350
301.170546	-16.427238	-22.320331
301.547726	24.673725	35.771188
301.924872	-6.799256	-31.139238
302.301986	-28.239719	-29.521090
302.679067	-18.692645	-26.770238
303.056115	6.307744	10.851706
303.433131	-20.229886	-6.947924
303.810114	-36.977719	-31.220146
304.187064	7.683170	-20.540368
304.563982	34.301707	28.651336
304.940866	-10.359182	-15.524109
305.317718	21.275614	-8.646979
305.694537	-3.077516	4.136391
306.071324	-44.097571	-36.398220
306.448077	21.275614	11.984410
306.824798	17.553873	12.146225
307.201486	6.631373	25.495947
307.578141	9.948577	-8.323350
307.954763	28.152744	28.813150
308.331352	-4.210219	-6.705201
308.707908	30.256336	52.519021
309.084432	54.852188	54.541706
309.460922	-13.676386	-18.841312
309.837379	-1.135738	26.224113
310.213804	2.019651	-35.427331
310.590195	3.475984	-13.339609
310.966554	-5.909275	-19.812201
311.342879	8.330429	-10.184220
311.719172	-32.285090	-42.061738
312.095431	24.026466	28.327706
312.471657	0.967855	-0.070794
312.847851	-19.825349	-0.960775
313.224011	-16.103608	-43.113535
313.600138	-11.087349	-8.727887
313.976232	-30.666941	-4.277979
314.352292	-6.475627	-48.048887
314.728320	13.832133	-7.595183
315.104314	2.424188	-4.197072
315.480275	21.437429	2.194613
315.856203	-14.485460	-40.767220
316.232098	38.185262	57.292558
316.607960	-16.265423	-1.041683
316.983788	23.298299	36.822984
317.359583	4.042336	-0.879868
317.735345	-20.148978	-24.100294
318.111073	-51.379238	-39.068164
318.486769	6.793188	-5.896127
318.862430	-14.404553	-18.113146
319.238059	-6.232904	6.806336
319.613654	-13.919108	-0.879868
319.989216	-16.912682	-41.009942
320.364744	-32.689627	-32.029220
320.740239	34.058984	30.350391
321.115701	-1.863904	-15.281387
321.491129	19.738373	15.544336
321.866524	-50.003812	-34.294627
322.241885	-47.657497	-21.996701
322.617213	1.210577	-7.352461
322.992507	8.815873	-10.184220
323.367768	34.868059	22.178743
323.742995	16.744799	6.482706
324.118189	3.475984	24.282336
324.493349	-4.210219	7.129965
324.868475	22.408318	28.651336
325.243568	-20.391701	-15.847738
325.618628	-23.627997	-22.724868
325.993654	-33.336886	-8.404257
326.368646	-2.753886	-1.850757
326.743604	16.663892	-0.394424
327.118529	-8.821941	-0.879868
327.493421	-6.880164	3.246410
327.868278	-22.738016	-2.659831
328.243102	-10.925534	-12.692350
328.617892	-15.132719	-23.210312
328.992648	-21.281682	-7.028831
329.367371	63.832910	50.658150
329.742060	-0.650293	-9.941498
330.116715	60.353892	51.305410
330.491336	26.130059	25.819576
330.865924	20.628355	-1.041683
331.240477	-5.828367	22.987817
331.614997	-24.841608	11.498965
331.989483	-10.278275	-13.501424
332.363935	-5.423830	-19.326757
332.738354	-15.375441	27.275910
333.112738	-31.395108	-34.132813
333.487088	27.748207	20.156058
333.861405	9.463133	5.026373
334.235687	-32.204182	-54.116942
334.609936	25.644614	17.081576
334.984150	13.265781	-5.734312
335.358331	20.385633	32.939428
335.732478	-27.349738	-27.174775
336.106590	-19.258997	-20.540368
336.480669	6.793188	11.822595
336.854713	0.725133	-12.935072
337.228724	-11.977330	-21.996701
337.602700	-20.310793	-30.087442
337.976642	-34.712312	-42.061738
338.350550	-28.967886	-9.132424
338.724424	-3.077516	0.495558
339.098264	23.945559	47.421854
339.472070	4.527781	3.731854
339.845842	8.168614	15.139799
340.219579	13.508503	-10.588757
340.593282	63.185651	65.545113
340.966951	-23.708904	-18.194053
341.340586	0.158781	30.674021
341.714186	40.288855	21.774206
342.087752	-11.491886	-15.200479
342.461284	9.139503	17.809743
342.834782	-38.110423	-44.003516
343.208245	-6.394719	19.266076
343.581674	36.728929	28.894058
343.955069	11.485818	-5.329775
344.328429	-31.799645	-10.507850
344.701755	9.948577	-2.983461
345.075047	19.738373	11.418058
345.448304	-66.508923	-56.139627
345.821526	46.437818	31.564002
346.194715	6.955003	36.742076
346.567869	25.159170	31.644910
346.940988	11.890355	29.055873
347.314073	31.389040	34.476669
347.687123	44.496040	31.806725
348.060139	10.514929	13.602558
348.433121	-11.330071	12.631669
348.806067	-27.107016	-7.999720
349.178980	-8.255590	-12.935072
349.551858	4.770503	-6.462479
349.924701	-26.055219	9.071743
350.297509	27.990929	25.253225
350.670283	6.550466	-10.022405
351.043023	13.265781	-9.860590
351.415727	-42.317608	-26.608424
351.788397	-29.048793	-11.397831
352.161033	15.450281	34.072132
352.533633	-0.407571	14.816169
352.906199	23.621929	24.282336
353.278731	12.618522	29.055873
353.651227	11.243096	26.952280
354.023689	8.573151	-10.912387
354.396116	-6.637441	12.955299
354.768508	7.602262	26.709558
355.140866	28.152744	31.483095
355.513188	20.547447	-2.336201
355.885476	-16.589053	-13.986868
356.257729	14.398484	-13.096887
356.629947	-18.207201	-30.896516
357.002130	-39.809478	-14.391405
357.374279	-1.863904	1.223725
357.746392	-23.223460	-32.757387
358.118471	-6.232904	-11.640553
358.490514	-3.643867	-10.022405
358.862523	-17.721756	-13.905961
359.234497	-32.123275	-37.288201
359.606436	15.612096	21.855113
359.978339	5.660484	14.088002
360.350208	-37.220441	-14.472312
360.722042	6.955003	27.518632
361.093841	0.482410	-8.808794
361.465604	-1.863904	-3.630720
361.837333	2.100559	-22.967590
362.209026	1.534207	-8.970609
362.580685	-7.851053	0.333743
362.952308	-3.643867	-21.673072
363.323896	5.336855	24.201428
363.695449	26.291873	4.136391
364.066967	10.514929	0.252836
364.438450	-10.359182	-13.825053
364.809897	-49.518367	-33.323738
365.181310	27.262762	5.835447
365.552687	1.776929	5.350002
365.924028	-11.734608	-33.404646
366.295335	-22.090756	-19.731294
366.666606	-23.708904	-29.601998
367.037842	-30.586034	-11.964183
367.409043	30.903596	7.049058
367.780209	55.661262	8.748113
368.151339	-26.136127	9.961725
368.522434	-30.181497	-12.045090
368.893493	-16.184516	-3.873442
369.264517	1.534207	-20.135831
369.635506	-30.424219	-23.453035
370.006459	1.938744	-8.080627
370.377377	31.793577	24.201428
370.748260	6.874096	60.447947
371.119107	-24.922516	-31.058331
371.489918	13.103966	16.191595
371.860694	-8.660127	-14.067775
372.231435	29.042725	50.819965
372.602140	47.732336	1.790076
372.972809	-12.948219	2.518243
373.343444	7.683170	-11.074201
373.714042	11.890355	-5.167961
374.084605	14.479392	4.702743
374.455132	-7.931960	-1.931664
374.825624	-0.731201	-25.071183
375.196080	9.705855	-0.313516
375.566501	-11.491886	27.275910
375.936885	9.382225	1.304632
376.307235	-6.799256	-3.226183
376.677548	16.178447	-15.685924
377.047826	-12.786404	10.447169
377.418068	-16.508145	-16.818627
377.788275	8.492244	-4.682516
378.158445	1.372392	-0.879868
378.528580	46.599633	24.201428
378.898679	17.230244	-9.779683
379.268743	12.861244	19.104262
379.638770	-12.624590	4.055484
380.008762	5.255947	3.003687
380.378718	66.745577	45.075539
380.748638	11.647633	-18.760405
381.118523	-47.010238	-19.893109
381.488371	-37.382256	-39.149072
381.858184	-15.699071	-30.330164
382.227960	19.252929	-1.446220
382.597701	-15.456349	-15.524109
382.967406	-61.897201	-68.033016
383.337075	-13.676386	-25.880257
383.706708	-33.579608	-16.656813
384.076304	-32.204182	-24.747553
384.445865	-52.026497	-61.317701
384.815390	-21.443497	-17.142257
385.184879	-23.061645	-9.779683
385.554332	-26.783386	-40.929035
385.923749	-0.083941	18.295187
386.293130	-60.845404	-34.699164
386.662474	-10.440090	1.385539
387.031783	4.365966	-5.410683
387.401055	9.786762	12.874391
387.770292	-6.071090	-24.828461
388.139492	-12.786404	7.049058
388.508656	-11.977330	-28.064757
388.877784	-2.268441	-9.375146
389.246876	-4.938386	-21.025812
389.615931	-64.162608	-49.909757
389.984950	-12.948219	6.401799
390.353933	38.832522	49.687262
390.722880	7.278633	8.909928
391.091791	16.502077	30.997650
391.460665	14.722114	-1.608035
391.829503	-23.627997	-21.268535
392.198304	30.984503	13.683465
392.567070	3.799614	-0.879868
392.935799	-35.925923	-24.100294
393.304491	-6.071090	-17.304072
393.673148	2.828725	17.081576
394.041768	10.919466	-11.236016
394.410351	-26.297941	-19.084035
394.778898	21.113799	9.395373
395.147409	36.162577	39.735650
395.515883	14.074855	-13.420516
395.884321	0.158781	-7.190646
396.252722	10.029484	18.214280
396.621087	-11.087349	0.010113
396.989415	11.485818	-3.873442
397.357707	-29.938775	8.829021
397.725962	28.071836	40.625632
398.094181	-24.679793	-34.941887
398.462363	23.136484	12.631669
398.830508	-23.547090	-25.799350
399.198617	-7.122886	-36.560035
399.566689	10.595836	-0.879868
399.934725	29.609077	42.891039
400.302724	-39.324034	-18.274961
400.670687	15.612096	19.913336
401.038612	-21.200775	-12.287812
401.406501	-70.392478	-59.052294
401.774354	-10.116460	-12.611442
402.142169	39.803410	58.425262
402.509948	-13.757293	-8.242442
402.877690	-22.818923	-25.556627
403.245396	-2.106627	-23.776664
403.613064	-32.527812	-24.828461
403.980696	-8.498312	-6.381572
404.348291	-30.343312	-45.702572
404.715849	-7.041978	-16.818627
405.083370	-4.372034	-1.769850
405.450855	-19.744441	-23.695757
405.818303	3.395077	5.269095
406.185713	-2.511164	4.702743
406.553087	3.152355	1.870984
406.920424	17.796596	10.689891
407.287724	-12.624590	-33.323738
407.654987	-15.294534	-46.673461
408.022213	-5.828367	-10.507850
408.389402	-3.643867	-34.780072
408.756554	-31.233293	-32.029220
409.123669	11.809447	1.061910
409.490748	-15.860886	-34.860979
409.857789	13.508503	50.334521
410.224793	-17.559941	10.042632
410.591760	5.094133	2.113706
410.958689	-2.996608	-2.093479
411.325582	-31.637830	-6.462479
411.692438	19.091114	7.372687
412.059256	-25.003423	-43.275350
412.426038	-4.372034	-9.051516
412.792782	20.062003	-2.578924
413.159489	-30.019682	-25.475720
413.526159	-0.003034	14.007095
413.892792	12.456707	17.243391
414.259387	4.365966	-5.167961
414.625945	1.048762	-7.271553
414.992466	6.388651	8.505391
415.358950	-57.528201	-65.120350
415.725396	-5.262016	-29.359275
416.091806	-1.782997	-10.831479
416.458177	3.475984	-3.873442
416.824512	0.725133	7.453595
417.190809	30.094522	13.521650
417.557069	26.049151	7.777225
417.923291	14.398484	8.019947
418.289476	-18.288108	15.625243
418.655624	-7.608330	-5.734312
419.021734	30.741781	29.460410
419.387807	19.252929	0.738280
419.753843	21.761059	5.916354
420.119841	15.288466	23.230539
420.485801	22.408318	20.641502
420.851724	13.832133	5.997262
421.217609	28.233651	16.272502
421.583457	2.990540	-16.980442
421.949268	3.799614	-10.588757
422.315041	-1.621182	13.845280
422.680776	14.560299	7.939039
423.046474	41.987910	18.376095
423.412134	4.285059	-7.676090
423.777756	-11.572793	-10.426942
424.143341	-30.019682	-18.194053
424.508888	-17.883571	12.388947
424.874398	-25.812497	-17.384979
425.239870	-9.550108	-21.996701
425.605304	23.379207	30.835836
425.970701	-40.133108	-16.171368
426.336059	-7.931960	11.660780
426.701381	-20.310793	-5.815220
427.066664	23.864651	22.340558
427.431909	-2.430256	-7.352461
427.797117	-2.915701	4.540928
428.162287	9.705855	-17.061350
428.527419	-37.301349	-8.485164
428.892514	3.718707	7.049058
429.257570	-36.977719	-28.064757
429.622589	-7.041978	-10.750572
429.987570	18.686577	18.861539
430.352513	25.240077	14.977984
430.717418	-6.799256	-12.449627
431.082285	25.806429	11.903502
431.447114	6.712281	12.955299
431.811905	10.595836	-12.530535
432.176659	-8.821941	3.246410
432.541374	69.900966	52.114484
432.906051	-2.511164	15.867965
433.270691	-5.100201	-19.488572
433.635292	3.637799	7.210873
433.999855	16.421170	53.004465
434.364380	42.958799	31.968539
434.728867	-19.744441	-32.919201
435.093317	-36.573182	-63.583109
435.457728	7.764077	4.298206
435.822100	-6.475627	-29.359275
436.186435	-19.663534	-23.614850
436.550732	18.120225	-10.588757
436.914990	-0.003034	-7.109738
437.279210	26.453688	20.560595
437.643392	34.382614	53.489910
438.007536	6.955003	43.538299
438.371642	27.100947	28.974965
438.735709	1.696022	-16.818627
439.099739	0.401503	16.353410
439.463730	48.379596	15.301613
439.827682	-19.987164	-27.093868
440.191597	-57.528201	-43.275350
440.555473	-40.618553	-46.997090
440.919310	-7.689238	16.272502
441.283110	18.282040	5.350002
441.646871	-23.547090	-9.051516
442.010593	40.288855	35.366650
442.374278	10.353114	12.469854
442.737924	35.596225	33.343965
443.101531	-4.129312	-11.721461
443.465100	12.942151	-12.854164
443.828631	-6.637441	0.576465
444.192123	9.786762	-15.524109
444.555577	-42.479423	-25.799350
444.918992	-25.407960	-27.417498
445.282368	-43.369404	-47.320720
445.645707	7.116818	-2.659831
446.009006	17.230244	-10.022405
446.372267	-11.491886	-10.588757
446.735490	45.790559	48.392743
447.098674	13.508503	4.945465
447.461819	-16.589053	8.100854
447.824926	-8.336497	7.858132
448.187994	11.566725	2.760965
448.551023	0.077873	6.078169
448.914014	33.492633	32.453984
449.276966	-31.556923	-8.566072
449.639880	-5.585645	-2.983461
450.002754	36.890744	-8.808794
450.365590	31.469947	31.644910
450.728388	13.508503	24.120521
451.091146	-12.058238	-6.543387
451.453866	-33.741423	-49.343405
451.816547	31.389040	14.088002
452.179189	18.929299	10.608984
452.541793	46.276003	34.314854
452.904357	-18.126293	-12.368720
453.266883	-29.857867	-15.362294
453.629370	23.136484	4.621836
453.991818	-40.214016	-39.068164
454.354227	-8.660127	-7.028831
454.716597	-55.586423	-45.702572
455.078929	6.874096	0.738280
455.441221	32.683559	19.994243
455.803475	-5.666553	-22.967590
456.165689	-32.446904	-24.504831
456.527865	38.347077	27.114095
456.890001	0.077873	-20.621275
457.252099	1.615114	-24.423924
457.614157	14.236670	7.615410
457.976177	-2.672978	-15.119572
458.338157	0.886947	-0.394424
458.700099	30.660873	22.097836
459.062001	28.233651	26.709558
459.423864	-25.974312	-35.750961
459.785688	-19.744441	-1.608035
460.147473	42.068818	28.651336
460.509219	-4.129312	-19.488572
460.870926	-5.181108	-28.307479
461.232593	-24.032534	-14.876850
461.594221	-38.595867	-25.071183
461.955810	-1.540275	20.965132
462.317360	29.204540	21.369669
462.678871	-13.271849	4.379113
463.040342	-9.711923	-8.566072
463.401775	-11.087349	3.650947
463.763167	-1.054830	-8.646979
464.124521	-10.520997	-14.715035
464.485835	24.026466	15.463428
464.847110	-45.634812	-50.557016
465.208346	-13.271849	-27.174775
465.569542	-10.682812	-14.391405
465.930699	28.314559	-23.938479
466.291817	-12.705497	3.974576
466.652895	5.984114	4.702743
467.013933	-34.469590	-38.906350
467.374933	13.993947	1.547354
467.735892	22.651040	14.330725
468.096813	16.421170	-25.394813
468.457694	11.728540	-4.116164
468.818535	28.638188	13.521650
469.179337	-15.699071	-7.514275
469.540099	-24.598886	-0.879868
469.900822	3.071447	15.139799
470.261506	-39.809478	3.812762
470.622149	-8.741034	-10.265127
470.982753	2.747818	17.971558
471.343318	-33.094164	-15.928646
471.703843	-41.427627	-0.232609
472.064328	10.434022	-11.964183
472.424774	-58.175460	-62.126775
472.785180	-21.443497	-13.744146
473.145546	-65.861664	-48.696146
473.505873	-4.776571	-11.883275
473.866160	13.993947	5.673632
474.226407	2.181466	7.453595
474.586615	4.285059	10.770799
474.946783	-43.773941	-25.394812
475.306911	4.770503	8.100854
475.666999	-23.466182	-10.426942
476.027047	-11.815516	-25.232998
476.387056	8.168614	13.440743
476.747025	11.081281	6.887243
477.106954	-3.967497	-13.015979
477.466843	-21.443497	-29.521090
477.826692	10.838559	16.596132
478.186502	-44.016664	-33.647368
478.546271	3.880522	-2.012572
478.906001	27.100947	16.353410
479.265690	4.770503	12.469854
479.625340	-0.245756	-9.294238
479.984950	35.515318	36.175725
480.344519	15.773910	-2.740738
480.704049	27.020040	11.903502
481.063539	3.233262	6.806336
481.422989	19.900188	21.531484
481.782398	-15.213627	-3.630720
482.141768	-11.815516	-25.961164
482.501098	10.272207	24.525058
482.860387	-39.485849	-39.796331
483.219637	4.285059	-14.957757
483.578846	-22.414386	3.731854
483.938015	-12.948219	3.489132
484.297144	23.783744	-3.954350
484.656233	-14.404553	7.129965
485.015282	-14.485460	-8.242442
485.374291	24.188281	48.150021
485.733259	-43.450312	-28.226572
486.092187	-5.585645	-7.837905
486.451075	14.155762	24.039613
486.809923	-31.071478	-50.071572
487.168730	-21.362590	-24.585738
487.527497	-14.242738	1.466447
487.886224	14.398484	38.117502
488.244910	-28.886978	-24.828461
488.603557	9.058596	13.602558
488.962162	-23.466182	-30.572887
489.320728	-10.520997	-5.006146
489.679253	44.657855	31.240373
490.037738	28.152744	35.609373
490.396182	-33.013256	-11.721461
490.754586	24.269188	-9.779683
491.112950	1.048762	-29.844720
491.471273	-3.562960	-7.999720
491.829555	6.793188	4.298206
492.187798	-22.333478	-30.411072
492.545999	6.631373	4.136391
492.904160	-44.421201	-42.789905
493.262281	-9.388293	0.010113
493.620361	-18.773553	-9.860590
493.978401	7.197725	25.091410
494.336400	17.149336	15.382521
494.694358	-47.495682	-40.767220
495.052276	-18.126293	-21.349442
495.410153	31.874484	37.389336
495.767990	-29.129701	-40.848127
496.125786	18.605670	8.829021
496.483541	-13.352756	-14.634127
496.841255	-29.291516	-26.689331
497.198929	-53.401923	-47.158905
497.556563	17.311151	5.592725
497.914155	32.683559	19.023354
498.271707	30.741781	7.615410
498.629218	40.612484	24.039613
498.986688	-11.896423	-35.508238
499.344118	-27.026108	-50.152479
499.701506	-15.860886	-42.385368
500.058854	-23.547090	-12.692350
500.416161	-11.006441	-36.317312
500.773428	34.463522	23.715984
501.130653	4.446873	25.981391
501.487837	-23.708904	-30.087442
501.844981	-7.203793	2.680058
502.202084	-14.000016	-46.835275
502.559146	-33.579608	-44.084424
502.916167	13.103966	-5.410683
503.273146	-12.139145	4.540928
503.630085	1.938744	-2.012572
503.986984	-11.410978	-33.323738
504.343841	-13.029127	-12.125998
504.700657	-28.563349	-9.456053
505.057432	17.958410	25.415039
505.414166	-28.158812	-37.450016
505.770858	-40.375830	-44.569868
506.127510	-3.805682	-5.572498
506.484121	6.631373	17.243391
506.840691	-16.508145	-10.507850
507.197219	10.353114	7.858132
507.553707	14.641207	21.126947
507.910153	-14.970904	-35.912775
508.266558	12.294892	36.013910
508.622922	48.136873	24.767780
508.979245	-27.592460	-4.601609
509.335527	6.145929	13.602558
509.691767	-92.561108	-63.744924
510.047966	-9.550108	-3.792535
510.404124	6.065022	0.414650
510.760241	-21.524404	-24.990275
511.116316	14.074855	8.909928
511.472350	8.168614	-0.879868
511.828343	13.346688	21.046039
512.184295	-34.388682	-50.718831
512.540205	2.666910	-6.867016
512.896073	-33.498701	-32.838294
513.251901	-6.556534	23.715984
513.607687	-58.741812	-67.790294
513.963431	9.058596	15.787058
514.319135	-5.666553	-14.957757
514.674796	-5.100201	49.687262
515.030417	8.896781	31.887632
515.385996	15.531188	6.968150
515.741533	-6.637441	10.770799
516.097029	34.058984	32.292169
516.452483	17.796596	26.466836
516.807896	-45.230275	-49.667035
517.163268	23.864651	4.864558
517.518597	-11.572793	-37.126387
517.873886	-16.184516	-2.417109
518.229132	-1.621182	-23.776664
518.584337	-52.188312	-23.614850
518.939501	-1.944812	4.055484
519.294623	5.013225	26.547743
519.649703	30.337244	12.308039
520.004742	-4.938386	-18.598590
520.359738	-8.336497	0.576465
520.714694	-1.459367	-25.556627
521.069607	-9.145571	-31.786498
521.424479	22.408318	25.495947
521.779309	25.482799	24.929595
522.134097	5.741392	13.198021
522.488844	17.553873	23.311447
522.843549	12.375799	-10.022405
523.198211	63.671096	35.690280
523.552833	-1.054830	21.936021
523.907412	-15.941793	-18.194053
524.261949	-12.543682	0.981002
524.616445	-32.527812	-47.401627
524.970899	-4.129312	3.570039
525.325311	25.159170	49.606354
525.679681	4.446873	-14.067775
526.034009	-48.062034	-30.411072
526.388295	-7.608330	-5.977035
526.742539	-8.902849	-4.601609
527.096742	17.553873	13.359836
527.450902	33.088096	26.709558
527.805020	-13.110034	-4.682516
528.159096	30.984503	6.401799
528.513131	18.848392	34.314854
528.867123	48.541410	18.618817
529.221073	25.401892	9.314465
529.574981	-9.873738	-17.223164
529.928847	-20.877145	4.298206
530.282671	9.624947	37.955688
530.636453	36.486207	30.835836
530.990193	-32.689627	-30.572887
531.343891	5.336855	3.812762
531.697546	-9.711923	15.948873
532.051159	15.288466	22.502373
532.404730	8.815873	-8.727887
532.758259	8.573151	28.651336
533.111746	1.291484	-24.019387
533.465190	30.822688	17.162484
533.818593	-50.489256	-42.789905
534.171952	-50.489256	-34.780072
534.525270	-36.815904	-26.446609
534.878545	-5.262016	-0.232609
535.231778	12.052170	20.479687
535.584969	15.369373	14.573447
535.938118	-33.660516	-15.281387
536.291224	10.272207	3.650947
536.644287	47.813244	15.706150
536.997309	-3.158423	1.870984
537.350288	-21.928941	-32.191035
537.703224	-18.692645	-7.352461
538.056118	9.139503	33.101243
538.408970	20.062003	40.868354
538.761779	-20.634423	-13.663238
539.114546	-11.734608	-12.530535
539.467270	-25.327053	-1.850757
539.819951	17.553873	8.990836
540.172591	27.748207	23.554169
540.525187	1.696022	19.346984
540.877741	58.816651	50.253613
541.230253	-2.268441	13.440743
541.582722	17.634781	11.984410
541.935148	-16.508145	-37.450016
542.287532	-35.602293	-15.524109
542.639873	11.081281	-9.617868
542.992172	7.521355	30.754928
543.344427	28.071836	-0.394424
543.696641	6.226836	5.430910
544.048811	-52.592849	-22.320331
544.400939	-11.653701	-6.867016
544.753024	19.172022	15.220706
545.105066	-3.158423	-13.177794
545.457066	20.709262	30.593113
545.809023	41.907003	41.839243
546.160937	-34.955034	-41.819016
546.512808	-18.611738	-33.485553
546.864636	-7.689238	-10.426942
547.216422	12.780336	2.518243
547.568165	19.738373	12.874391
547.919865	-31.233293	-19.650387
548.271522	-17.559941	-0.394424
548.623136	63.832910	40.949262
548.974707	-34.793219	-2.821646
549.326236	-3.643867	22.987817
549.677721	27.586392	35.528465
550.029164	56.713059	41.596521
550.380563	60.677522	50.172706
550.731920	16.097540	23.554169
551.083233	70.386410	58.667984
551.434504	64.965614	82.131132
551.785731	67.554651	89.331891
552.136916	65.208336	76.791243
552.488057	111.568281	92.568187
552.839156	91.341429	108.992391
553.190211	139.562244	158.184095
553.541223	149.109318	135.691836
553.892193	152.345614	193.540632
554.243119	197.815577	205.757650
554.594002	193.284762	185.935336
554.944841	188.834855	155.756873
555.295638	219.822392	246.696799
555.646391	284.871947	256.891132
555.997101	285.357392	283.590576
556.347768	314.969503	311.503632
556.698392	311.733207	274.771669
557.048972	285.600114	318.785299
557.399510	315.697670	327.766021
557.750004	421.929096	420.405002
558.100454	316.749466	339.254873
558.450862	402.754040	433.026558
558.801226	433.903392	428.253021
559.151546	416.831929	408.268891
559.501824	419.825503	421.699521
559.852058	483.418725	468.787632
560.202248	531.882262	506.814113
560.552395	567.805151	544.193336
560.902499	516.509855	501.878762
561.252560	585.685688	588.773317
561.602576	581.073966	564.258373
561.952550	576.624059	615.634576
562.302480	637.466429	643.952169
562.652366	619.747707	603.417558
563.002209	644.748096	644.437613
563.352009	642.644503	647.916632
563.701765	667.321262	675.991502
564.051477	669.020318	677.690558
564.401146	671.771170	691.606632
564.750771	710.364003	742.335576
565.100353	722.985559	734.811188
565.449891	789.006003	784.326521
565.799385	834.233244	809.165095
566.148836	792.727744	804.310650
566.498243	844.751207	839.343558
566.847607	849.443836	826.074743
567.196927	841.919447	858.599521
567.546203	852.841947	876.803687
567.895435	926.629503	928.746243
568.244624	939.493781	929.959854
568.593768	921.613244	950.914873
568.942870	951.306262	969.199947
569.291927	961.419688	979.313373
569.640940	1018.944855	1031.255928
569.989910	1012.634077	1034.654039
570.338836	971.371299	1034.168595
570.687718	1009.235966	1011.352706
571.036557	1050.579651	1043.715669
571.385351	1050.984188	1036.838539
571.734101	1079.059059	1077.534965
572.082808	1108.832984	1089.347447
572.431471	1111.826559	1104.477132
572.780089	1132.700670	1154.477910
573.128664	1139.254170	1150.594354
573.477195	1176.067040	1153.911558
573.825682	1167.329040	1178.426502
574.174125	1185.128670	1205.449576
574.522524	1179.869688	1192.666206
574.870879	1269.110559	1244.042410
575.219189	1276.230410	1288.541484
575.567456	1247.589188	1300.434873
575.915679	1266.602429	1278.670780
576.263858	1331.247447	1306.664743
576.611992	1303.900744	1281.259817
576.960083	1318.302262	1340.079502
577.308129	1362.234984	1396.876502
577.656131	1395.568836	1426.812243
578.004089	1357.137818	1404.643613
578.352003	1319.030429	1369.448891
578.699873	1380.843688	1424.223206
579.047698	1426.232744	1416.213373
579.395479	1481.735225	1489.920021
579.743217	1448.320466	1442.912817
580.090909	1477.608947	1445.987299
580.438558	1486.913299	1461.845150
580.786162	1471.379077	1478.350262
581.133722	1424.129151	1466.537780
581.481238	1460.699299	1485.874650
581.828709	1486.427855	1498.496206
582.176136	1469.922744	1477.379373
582.523519	1449.372262	1448.090891
582.870857	1445.245984	1472.120391
583.218151	1440.148818	1432.556669
583.565400	1457.382096	1434.013002
583.912605	1444.032373	1460.227002
584.259766	1443.061484	1440.323780
584.606882	1434.080762	1441.537391
584.953954	1453.822170	1435.064799
585.300981	1411.912133	1429.077650
585.647964	1491.444114	1472.686743
585.994902	1446.702318	1433.042113
586.341796	1424.857318	1400.760058
586.688646	1338.690929	1370.905225
587.035450	1366.442170	1342.587632
587.382210	1306.975225	1340.160410
587.728926	1347.348022	1383.203150
588.075597	1379.306447	1346.471188
588.422223	1387.639910	1401.407317
588.768805	1302.768040	1313.380058
589.115342	1355.762392	1374.141521
589.461835	1280.842133	1279.075317
589.808282	1314.014170	1294.528632
590.154685	1264.256114	1295.014076
590.501044	1220.404299	1228.831817
590.847357	1225.986910	1228.831817
591.193626	1170.079892	1203.993243
591.539851	1238.365744	1220.336539
591.886030	1148.477614	1213.944854
592.232165	1141.924114	1173.895687
592.578255	1173.073466	1196.064317
592.924300	1211.828114	1234.576243
593.270300	1132.781577	1174.947484
593.616255	1087.554336	1077.292243
593.962166	1097.344133	1105.043484
594.308032	1081.809910	1122.519484
594.653852	1049.204225	1071.709632
594.999628	1072.829188	1097.033650
595.345359	997.423484	992.258558
595.691045	1024.446559	975.591632
596.036686	1001.064318	1002.938336
596.382283	1002.925188	1055.528150
596.727834	994.753540	1003.909225
597.073340	954.866188	965.963650
597.418801	978.976596	989.588613
597.764217	961.905133	981.497873
598.109589	945.642744	940.477817
598.454915	911.742540	890.557947
598.800196	883.586762	895.412391
599.145432	876.871447	861.269465
599.490623	863.359910	886.836206
599.835768	807.291077	789.990039
600.180869	813.763670	815.152243
600.525925	825.009799	834.408206
600.870935	817.647225	850.346965
601.215900	782.857040	783.760169
601.560820	789.815077	787.320095
601.905695	720.153799	758.193428
602.250525	726.626392	729.228576
602.595309	738.519781	739.422910
602.940048	704.862299	715.231595
603.284742	658.987799	709.648984
603.629390	655.751503	688.208521
603.973994	660.605947	659.324576
604.318552	662.709540	658.758225
604.663064	616.915947	617.576354
605.007532	624.683059	625.586188
605.351954	600.087207	657.301891
605.696330	599.035410	595.812262
606.040661	607.773410	552.850428
606.384947	514.082633	558.190317
606.729188	528.969596	487.639058
607.073383	534.390392	530.924521
607.417532	499.762022	500.179706
607.761636	507.933670	489.176299
608.105695	477.350670	490.389910
608.449708	526.623281	521.943799
608.793676	410.359336	426.068521
609.137598	447.334022	447.023539
609.481474	454.534781	424.369465
609.825305	465.376373	458.997836
610.169091	437.058781	444.758132
610.512831	389.242503	404.951688
610.856525	423.789966	387.313873
611.200174	432.123429	428.900280
611.543777	430.100744	423.479484
611.887334	416.265577	401.634484
612.230846	406.799410	397.265484
612.574312	417.479188	431.246595
612.917733	382.041744	374.692317
613.261107	361.248540	345.403836
613.604436	395.957818	392.491947
613.947720	381.718114	380.679465
614.290957	378.643633	371.294206
614.634149	345.067059	328.008743
614.977295	373.303744	346.051095
615.320395	294.419022	309.157317
615.663450	354.209596	352.200058
616.006458	291.991799	313.769039
616.349421	317.639447	329.950521
616.692338	336.167244	323.963373
617.035209	275.891225	341.601188
617.378034	285.114670	285.046910
617.720813	308.173281	306.891910
618.063546	326.943799	322.021595
618.406234	329.290114	327.280576
618.748875	299.758910	285.613262
619.091471	299.516188	301.632928
619.434020	259.143392	279.221576
619.776524	245.389133	239.010595
620.118982	262.460596	266.761836
620.461393	317.558540	306.325558
620.803759	235.761151	255.111169
621.146078	226.456799	271.535373
621.488351	216.747910	227.117206
621.830579	201.860947	228.249910
622.172760	256.311633	257.700206
622.514895	242.071929	241.518725
622.856984	224.191392	230.677132
623.199027	162.135410	185.368984
623.541024	178.883244	183.427206
623.882974	182.038633	187.310762
624.224878	183.009522	189.980706
624.566737	161.488151	142.002613
624.908549	184.304040	190.304336
625.250314	151.779262	125.497502
625.592034	209.789873	234.722502
625.933707	179.045059	195.482410
626.275334	165.776244	167.650262
626.616914	148.219336	166.598465
626.958449	153.316503	133.588243
627.299937	184.142225	166.598465
627.641378	139.157707	123.313002
627.982774	154.934651	160.692225
628.324123	184.061318	174.770113
628.665425	125.403447	134.073687
629.006681	160.193633	165.223039
629.347891	97.571299	93.619984
629.689055	141.180392	121.452132
630.030171	150.484744	147.747039
630.371242	124.513466	99.930762
630.712266	128.801559	134.073688
631.053243	154.287392	145.238910
631.394174	141.180392	139.656299
631.735059	118.283596	120.643058
632.075897	134.060540	117.487669
632.416688	117.069984	95.399947
632.757433	155.015559	164.899410
633.098131	82.037077	89.979150
633.438783	132.199670	129.219243
633.779388	128.639744	126.630206
634.119946	119.011762	121.856669
634.460458	125.727077	122.503928
634.800923	54.933096	60.933391
635.141342	95.710429	106.565169
635.481713	127.345225	138.199965
635.822038	79.609855	114.736817
636.162317	107.199281	76.548521
636.502548	116.827262	117.487669
636.842733	110.435577	93.862706
637.182871	98.299466	92.649095
637.522963	113.752781	78.733021
637.863007	97.814022	75.658539
638.203005	95.386799	101.629817
638.542956	117.555429	91.516391
638.882860	89.076022	55.512595
639.222717	100.403059	105.189743
639.562528	52.344059	50.091799
639.902291	83.574318	64.574225
640.242008	27.424577	17.405206
640.581677	64.156540	71.613169
640.921300	48.541410	39.250206
641.260876	94.577725	100.335299
641.600405	77.425355	42.405595
641.939887	53.719484	55.108058
642.279322	69.010984	73.069502
642.618710	67.878281	53.489910
642.958050	81.632540	48.797280
643.297344	22.731947	28.004076
643.636591	81.632540	90.060058
643.975791	59.302096	60.933391
644.314944	46.518725	14.411632
644.654049	109.545596	93.215447
644.993108	63.347466	92.649095
645.332119	65.370151	51.224502
645.671083	122.005336	94.995410
646.010000	50.240466	43.619206
646.348870	30.013614	68.053243
646.687693	29.366355	34.881206
647.026468	69.415522	51.143595
647.365197	82.117984	97.584447
647.703878	28.395466	40.221095
648.042511	47.813244	10.366262
648.381098	8.654059	22.178743
648.719637	22.084688	44.347373
649.058129	54.366744	58.182539
649.396574	60.758429	76.953058
649.734971	71.761836	61.985188
650.073321	53.314947	47.907299
650.411624	28.476373	38.845669
650.749879	64.156540	66.516002
651.088087	41.259744	46.046428
651.426248	73.541799	82.454762
651.764361	33.978077	4.540928
652.102427	46.842355	57.697095
652.440445	104.772059	93.781799
652.778416	61.162966	50.900873
653.116339	90.532355	86.581039
653.454215	67.878281	65.868743
653.792043	50.078651	65.787836
654.129824	31.712670	44.266465
654.467557	14.641207	32.534891
654.805243	31.712670	28.489521
655.142881	40.207947	50.091799
655.480472	28.395466	3.570039
655.818015	55.175818	69.671391
656.155510	40.612484	41.030169
656.492958	53.395855	47.260039
656.830358	8.815873	14.330725
657.167711	24.026466	44.347373
657.505015	33.330818	30.593113
657.842273	68.525540	50.496336
658.179482	37.861633	52.357206
658.516644	45.871466	30.026762
658.853758	28.880910	34.638484
659.190824	74.674503	51.790854
659.527842	43.686966	46.774595
659.864813	27.586392	25.819576
660.201736	54.366744	61.095206
660.538611	1.534207	12.146225
660.875438	33.816262	15.301613
661.212218	24.754633	24.201428
661.548950	49.835929	51.952669
661.885633	30.337244	62.308817
662.222269	19.738373	27.680447
662.558857	-0.003034	-14.391405
662.895397	43.525151	61.904280
663.231889	62.214762	34.962113
663.568334	26.534596	17.728836
663.904730	50.402281	70.723187
664.241078	22.489225	45.722799
664.577378	2.909633	25.657762
664.913631	23.783744	11.337150
665.249835	46.599633	17.405206
665.585991	17.311151	14.573447
665.922099	31.469947	21.936021
666.258159	32.683559	30.188576
666.594171	-1.782997	-0.394424
666.930135	12.618522	21.774206
667.266051	-0.973923	5.511817
667.601919	34.382614	44.509188
667.937738	81.228003	41.839243
668.273510	34.382614	43.781021
668.609233	-38.757682	-38.582720
668.944908	5.579577	-33.566461
669.280535	17.230244	9.395373
669.616114	65.531966	60.124317
669.951644	25.320984	31.321280
670.287126	77.991707	45.641891
670.622560	-1.944812	10.366262
670.957946	9.867670	7.858132
671.293283	-13.919108	29.703132
671.628572	27.667299	23.715984
671.963813	21.437429	9.233558
672.299006	-15.699071	0.010113
672.634150	8.411336	20.722410
672.969245	0.158781	19.266076
673.304293	-8.579219	9.799910
673.639291	64.965614	86.985576
673.974242	-2.592071	12.874391
674.309144	-21.605312	-30.411072
674.643998	-39.000404	-22.320331
674.978803	31.793577	29.055873
675.313560	46.437818	57.292558
675.648268	5.579577	21.531484
675.982928	34.787151	43.457391
676.317539	26.130059	17.081576
676.652101	36.081670	42.081965
676.986615	-7.931960	-24.990275
677.321081	-29.938775	-1.365312
677.655498	-4.372034	-7.595183
677.989866	48.784133	39.978373
678.324186	49.755022	40.463817
678.658457	29.851799	52.114484
678.992680	57.036688	31.483095
679.326854	24.026466	9.152650
679.660979	-15.132719	-12.530535
679.995055	4.204151	17.000669
680.329083	11.404910	20.317873
680.663062	8.654059	-16.656812
680.996993	8.249522	-7.352461
681.330874	57.926670	66.354187
681.664707	21.841966	27.599539
681.998491	16.016633	31.968539
682.332227	42.473355	21.531484
682.665913	-1.863904	15.544336
682.999551	-8.012867	1.870984
683.333140	16.663892	27.518632
683.666680	48.298688	35.852095
684.000171	2.424188	8.667206
684.333613	50.645003	50.091799
684.667006	-14.566367	-16.333183
685.000351	56.955781	25.334132
685.333646	38.670707	13.602558
685.666893	29.528170	47.179132
686.000091	-8.821941	-9.375146
686.333239	41.421559	47.421854
686.666339	62.538392	31.644910
686.999390	21.761059	21.450576
687.332391	-22.818923	-9.536961
687.665344	-0.164849	-6.786109
687.998247	9.382225	31.887632
688.331102	7.764077	10.608984
688.663907	18.201133	12.550762
688.996664	16.744799	-3.954350
689.329371	-3.643867	-0.070794
689.662029	-21.848034	-40.848127
689.994638	27.910022	42.162873
690.327198	30.013614	33.586688
690.659708	-16.103608	-18.113146
690.992170	9.139503	-29.278368
691.324582	53.638577	49.201817
691.656945	11.324003	7.615410
691.989259	-11.087349	25.495947
692.321524	19.091114	38.198410
692.653739	-8.012867	-19.245850
692.985905	28.557281	33.586687
693.318022	-8.012867	-6.381572
693.650089	2.990540	-0.475331
693.982107	49.431392	52.519021
694.314076	20.385633	19.104262
694.645996	-48.952016	-34.456442
694.977866	37.942540	33.991225
695.309686	8.977688	-6.381572
695.641458	9.948577	-30.411072
695.973180	31.469947	27.761354
696.304852	4.689596	-7.999720
696.636475	5.579577	12.793484
696.968049	28.395466	29.055873
697.299573	3.152355	19.104262
697.631047	18.282040	19.913336
697.962472	-28.239719	-41.899924
698.293848	12.537614	27.033188
698.625174	-38.595867	2.841873
698.956451	22.408318	48.311836
699.287678	-23.870719	-23.938479
699.618855	37.295281	22.178743
699.949983	-4.938386	-0.394424
700.281061	-19.663534	6.968150
700.612089	15.935725	-14.229590
700.943068	-1.297553	5.673632
701.273998	1.857836	11.984410
701.604877	8.977688	-13.663238
701.935707	-27.673367	-18.760405
702.266487	9.544040	7.534502
702.597218	58.897559	60.528854
702.927899	29.932707	24.282336
703.258530	20.062003	28.732243
703.589111	-15.618164	-25.880257
703.919642	-40.942182	-18.436775
704.250124	20.304725	13.198021
704.580556	38.104355	31.483095
704.910938	-8.902849	-12.854164
705.241270	20.466540	9.961725
705.571553	22.974670	2.518243
705.901785	4.042336	-24.909368
706.231968	29.204540	32.777613
706.562101	-42.722145	-16.575905
706.892184	-29.129701	-29.440183
707.222216	20.385633	10.123539
707.552199	33.654447	41.111076
707.882132	-17.317219	-52.579701
708.212016	4.608688	-13.420516
708.541849	5.498670	17.081576
708.871632	-32.851441	-6.462479
709.201365	8.411336	-14.715035
709.531048	3.637799	-11.236016
709.860681	-43.450312	-52.984238
710.190264	27.829114	2.275521
710.519796	20.709262	2.194613
710.849279	34.220799	24.444150
711.178712	19.819281	-0.879868
711.508094	0.563318	19.913336
711.837427	40.369762	39.816558
712.166709	-8.012867	-19.974016
712.495941	4.446873	7.049058
712.825123	1.857836	11.498965
713.154255	27.829114	20.479688
713.483336	-32.608719	-16.899535
713.812367	24.107373	-0.718053
714.141348	30.984503	17.809743
714.470279	19.172022	3.812762
714.799159	-12.462775	-30.006535
715.127990	15.612096	6.806336
715.456769	18.605670	20.722410
715.785499	5.255947	-3.064368
716.114178	14.236670	13.198021
716.442807	14.317577	-14.634127
716.771385	0.320596	-2.902553
717.099914	16.340262	16.757947
717.428391	-8.902849	-28.873831
717.756819	-17.398127	-6.057942
718.085195	14.155762	12.146225
718.413522	-24.517978	-33.809183
718.741798	41.178836	11.256243
719.070023	-13.190941	-5.734312
719.398198	4.608688	23.958706
719.726323	8.330429	7.291780
720.054397	-16.993590	5.026373
720.382420	30.660873	23.068725
720.710393	-2.834793	-6.300664
721.038316	58.331207	24.039613
721.366188	46.680540	27.680447
721.694009	14.803022	9.880817
722.021779	15.693003	18.537910
722.349499	-19.016275	-11.316924
722.677169	50.402281	45.237354
723.004787	-20.553516	-22.077609
723.332355	-25.731590	-13.663238
723.659873	5.175040	-7.514275
723.987339	-21.119867	-33.323738
724.314755	35.029873	19.913336
724.642120	-7.284701	-25.071183
724.969435	8.654059	-4.763424
725.296699	9.301318	-10.426942
725.623911	-12.220053	-43.598979
725.951074	-2.349349	11.175336
726.278185	-20.391701	-2.983461
726.605245	33.007188	36.580262
726.932255	32.198114	43.052854
727.259214	-46.524793	-70.622053
727.586122	20.709262	20.641502
727.912979	-33.984145	-33.809183
728.239785	-20.391701	-26.527516
728.566540	40.531577	49.201817
728.893245	-1.702090	21.774206
729.219898	12.780336	44.751910
729.546501	38.508892	17.324299
729.873052	1.776929	-23.533942
730.199552	-5.100201	24.686873
730.526002	5.094133	-20.216738
730.852400	-36.815904	-30.330164
731.178748	39.722503	38.683854
731.505044	28.557281	15.382521
731.831290	-28.158812	-42.061738
732.157484	25.887336	31.159465
732.483627	-9.954645	11.822595
732.809719	-17.964478	-21.915794
733.135760	-6.151997	8.100854
733.461750	10.029484	-2.902553
733.787688	-5.262016	-5.329775
734.113576	-25.974312	-17.789516
734.439412	-4.614756	9.152650
734.765197	-0.164849	-3.873442
735.090931	9.624947	17.809743
735.416614	26.858225	19.751521
735.742245	-1.297553	-18.355868
736.067825	6.226836	0.091021
736.393354	3.152355	0.414650
736.718832	20.304725	4.460021
737.044258	13.751225	11.013521
737.369633	-3.077516	-10.669664
737.694957	27.990929	42.243780
738.020229	-47.819312	-46.188016
738.345450	45.305114	20.236965
738.670619	-10.116460	-3.145275
738.995738	15.207559	6.159076
739.320804	-11.491886	-24.181201
739.645820	28.314559	38.441132
739.970784	-19.339904	6.806336
740.295696	-30.100590	-21.915794
740.620557	21.761059	38.198410
740.945366	16.421170	4.217299
741.270124	-6.718349	1.466447
741.594831	8.654059	31.402187
741.919486	-57.770923	-71.431127
742.244089	10.676744	12.308039
742.568641	11.485818	-14.795942
742.893141	26.777318	35.690280
743.217590	2.019651	4.136391
743.541987	-11.330071	-19.407664
743.866332	11.162188	-4.925238
744.190626	-17.155404	-12.125998
744.514868	-18.773553	6.401799
744.839058	-44.259386	-30.006535
745.163197	-26.297941	-27.822035
745.487284	-2.187534	13.764373
745.811320	6.712281	-30.006535
746.135303	20.142910	22.502373
746.459235	-16.265423	-23.372127
746.783115	46.195096	35.690280
747.106944	5.417762	2.922780
747.430720	-39.485849	-44.650775
747.754445	21.922873	1.709169
748.078118	-25.974312	-23.129405
748.401739	34.382614	28.004076
748.725308	-45.311182	-38.582720
749.048825	13.427596	19.427891
749.372291	-19.663534	-15.605016
749.695705	-13.271849	-5.572498
750.019066	37.861633	15.948873
750.342376	-27.349738	-29.601998
750.665634	-16.184516	6.320891
750.988840	-10.116460	-28.631109
751.311994	41.340651	9.476280
751.635096	-30.909664	-4.035257
751.958146	-9.711923	-26.770238
752.281143	22.489225	34.072132
752.604089	12.942151	-3.387998
752.926983	-29.210608	-30.734701
753.249825	-33.336886	-29.035646
753.572615	-8.255590	-16.090461
753.895352	36.809836	7.129965
754.218038	-26.459756	-7.109738
754.540671	33.492633	47.502762
754.863252	4.608688	30.754928
755.185781	12.537614	14.411632
755.508258	-21.119867	2.356428
755.830683	-4.533849	-17.708609
756.153056	-15.941793	-18.194053
756.475376	-32.123275	-13.015979
756.797644	26.615503	-0.637146
757.119860	16.825707	16.515225
757.442023	-50.246534	-56.139627
757.764135	22.893762	15.058891
758.086194	-27.592460	3.650947
758.408201	47.489614	19.751521
758.730155	15.288466	-5.410683
759.052057	-10.035553	-0.637146
759.373907	9.867670	10.770799
759.695704	17.715688	11.337150
760.017449	30.660873	8.990836
760.339142	-23.385275	-24.181201
760.660782	3.152355	-2.983461
760.982370	-38.514960	-38.339998
761.303905	-25.327053	-20.540368
761.625388	19.252929	19.913336
761.946818	-18.207201	-28.469294
762.268196	-13.919108	-2.336201
762.589521	-51.379238	-30.087442
762.910794	-17.236312	-29.440183
763.232015	1.534207	2.922780
763.553182	16.987522	18.376095
763.874298	-35.764108	-43.356257
764.195360	-23.385275	-20.783090
764.516370	-17.155404	-0.232609
764.837328	-20.877145	21.288762
765.158233	-7.851053	-8.889701
765.479085	1.534207	10.689891
765.799885	-32.446904	-31.301053
766.120631	-11.410978	14.735262
766.441326	13.427596	29.379502
766.761967	25.725522	15.463428
767.082556	-13.271849	-33.970998
767.403092	4.042336	14.411632
767.723575	-12.462775	-12.530535
768.044006	-22.899830	-15.928646
768.364384	-10.197367	12.793484
768.684709	24.026466	13.036206
769.004981	35.838947	39.169299
769.325200	13.508503	-7.676090
769.645367	-36.411367	-25.556627
769.965481	-35.683201	-14.634127
770.285541	9.382225	-5.006146
770.605549	2.828725	25.334132
770.925504	-20.310793	-16.252275
771.245407	47.732336	47.421854
771.565256	-15.051812	10.366262
771.885052	-36.815904	-7.271553
772.204795	2.424188	-10.507850
772.524486	12.780336	10.042632
772.844123	40.127040	33.991225
773.163708	-43.693034	-28.954738
773.483239	-23.951627	-6.786109
773.802717	-33.903238	-45.864387
774.122142	-6.151997	-2.093479
774.441515	17.311151	3.165502
774.760834	1.534207	-16.494998
775.080100	-29.857867	-10.507850
775.399313	1.534207	29.864947
775.718473	20.466540	14.573447
776.037579	-17.317219	-20.783090
776.356633	14.236670	0.091021
776.675633	-45.715719	-58.405035
776.994580	23.217392	21.936021
777.313474	0.482410	-19.974016
777.632315	31.793577	3.812762
777.951103	10.110392	6.401799
778.269837	-12.300960	-19.407664
778.588518	-2.834793	6.563613
778.907146	28.476373	36.661169
779.225720	-9.711923	-3.954350
779.544242	8.815873	-2.902553
779.862709	35.758040	43.942836
780.181124	0.401503	20.236965
780.499485	-8.660127	3.650947
780.817793	8.734966	-24.100294
781.136047	-8.336497	-20.054924
781.454248	-6.718349	7.777225
781.772396	10.514929	27.437725
782.090490	2.424188	11.579873
782.408531	-16.103608	-15.443201
782.726518	8.815873	0.495558
783.044452	14.074855	28.570428
783.362333	-9.873738	-6.057942
783.680159	5.660484	4.136391
783.997933	24.916447	6.887243
784.315653	-19.178090	-14.634127
784.633319	8.654059	-3.549813
784.950932	-12.462775	-6.462479
785.268491	-39.728571	-60.670442
785.585996	71.357299	55.998039
785.903448	12.861244	8.181762
786.220847	31.469947	15.867965
786.538191	-13.433664	-1.365312
786.855482	-14.970904	1.223725
787.172720	-24.517978	-10.507850
787.489903	-5.828367	19.346984
787.807033	5.094133	36.822984
788.124110	-8.902849	-11.397831
788.441132	-33.255978	-63.664016
788.758101	-15.456349	-18.922220
789.075016	38.266170	61.985188
789.391877	22.812855	37.065706
789.708685	-27.511553	-22.482146
790.025438	21.437429	14.573447
790.342138	-3.158423	-8.808794
790.658784	-36.168645	-12.449627
790.975376	-26.783386	-7.190646
791.291915	-18.126293	-16.252275
791.608399	21.518336	26.305021
791.924830	-16.912682	-30.087442
792.241206	23.541022	22.016928
792.557529	-5.423830	-40.929035
792.873798	11.081281	35.043021
793.190012	-29.938775	2.518243
793.506173	-13.433664	-37.530924
793.822280	-10.440090	-11.478738
794.138333	14.560299	15.706150
794.454332	-14.080923	-28.469294
794.770277	-8.902849	-23.533942
795.086167	23.945559	17.809743
795.402004	4.770503	-4.763424
795.717787	-7.851053	-12.530535
796.033515	-11.087349	-26.446609
796.349190	-26.055219	-10.103313
796.664810	7.278633	5.026373
796.980376	30.175429	10.932613
797.295888	12.052170	-35.103701
797.611346	-34.065053	-29.763813
797.926750	-5.666553	1.304632
798.242099	45.143299	16.919762
798.557394	53.153133	41.434706
798.872635	-4.048404	4.621836
799.187822	-16.346330	8.829021
799.502955	-3.401145	19.832428
799.818033	1.453299	7.939039
800.133057	8.492244	25.900484
800.448027	-13.110034	-12.935072
800.762942	-29.938775	2.032799
801.077803	10.919466	-9.536961
801.392610	11.809447	21.207854
801.707362	31.389040	-2.417109
802.022060	4.527781	-0.394424
802.336703	-0.003034	10.123539
802.651292	7.116818	12.874391
802.965827	4.042336	25.819576
803.280307	31.389040	18.214280
803.594733	-2.834793	-29.844720
803.909104	44.172410	10.123539
804.223421	-8.012867	-20.702183
804.537684	17.472966	38.036595
804.851891	8.006799	3.812762
805.166045	-22.495293	-14.310498
805.480143	5.660484	14.330725
805.794188	10.353114	7.129965
806.108177	12.699429	2.922780
806.422112	-1.863904	-8.242442
806.735993	12.294892	10.770799
807.049818	8.249522	2.113706
807.363590	-8.741034	-8.808794
807.677306	-22.090756	-11.964183
807.990968	1.615114	-19.569479
808.304575	-11.491886	19.994243
808.618128	-3.077516	-25.232998
808.931625	24.835540	2.437336
809.245068	37.699818	38.117502
809.558457	7.764077	4.298206
809.871790	-2.753886	8.829021
810.185069	45.871466	31.725817
810.498293	-20.553516	-7.999720
810.811462	-6.313812	-10.265127
811.124576	23.783744	-1.527127
811.437636	-4.372034	11.337150
811.750640	31.550855	12.308039
812.063590	-7.284701	-34.537350
812.376485	-38.353145	-47.158905
812.689325	-35.359571	-7.999720
813.002110	7.764077	1.628262
813.314840	-30.666941	-30.006535
813.627516	4.851410	-24.100294
813.940136	-28.967886	-26.608424
814.252701	3.395077	-6.624294
814.565212	14.722114	4.217299
814.877667	10.676744	32.211262
815.190067	-38.272238	-21.106720
815.502413	5.903207	12.874391
815.814703	-6.961071	-28.388387
816.126938	21.518336	-7.918812
816.439118	-21.848034	-50.071572
816.751243	-33.660516	10.932613
817.063313	22.812855	13.521650
817.375328	-21.119867	-26.527516
817.687287	-28.401534	-27.012961
817.999192	18.120225	4.460021
818.311041	-31.961460	-18.436775
818.622835	51.454077	33.910317
818.934574	-0.731201	-0.313516
819.246258	37.538003	0.333743
819.557887	1.129670	29.703132
819.869460	-0.569386	9.799910
820.180978	-0.650293	-0.232609
820.492441	-4.452941	-6.705201
820.803848	6.226836	-18.355868
821.115200	-25.165238	-39.796331
821.426497	-9.307386	-26.851146
821.737739	-20.796238	-22.563053
822.048925	2.909633	-0.070794
822.360056	2.909633	14.735262
822.671131	-18.288108	-19.812201
822.982151	-1.702090	9.880817
823.293116	1.453299	-3.954350
823.604025	3.395077	-25.799350
823.914879	17.392059	15.139799
824.225677	-26.783386	-13.501424
824.536420	11.081281	12.955299
824.847107	-17.640849	-31.058331
825.157739	13.913040	32.049447
825.468315	-2.511164	15.382521
825.778836	-31.476016	-58.243220
826.089301	-27.996997	-48.453424
826.399711	26.858225	3.731854
826.710065	-1.702090	0.900095
827.020363	-4.857478	-16.333183
827.330606	44.010596	19.427891
827.640794	-14.242738	27.923169
827.950925	-10.197367	-15.362294
828.261001	57.603040	14.330725
828.571022	-27.430645	-2.983461
828.880986	10.838559	26.547743
829.190895	14.560299	12.308039
829.500749	55.337633	21.531484
829.810546	-11.815516	-8.970609
830.120288	45.547836	60.043410
830.429974	26.372781	57.373465
830.739604	38.023447	47.179132
831.049179	-4.372034	-2.498016
831.358697	3.314170	16.838854
831.668160	-30.666941	-25.880257
831.977567	2.424188	4.055484
832.286918	-1.540275	-12.287813
832.596213	14.560299	2.599150
832.905453	10.029484	5.350002
833.214636	23.055577	23.230539
833.523764	13.023059	27.518632
833.832836	-7.527423	-16.575905
834.141851	15.693003	16.353410
834.450811	-29.453330	-20.297646
834.759715	-13.757293	-6.786109
835.068563	60.030262	50.253613
835.377355	7.844984	6.806336
835.686091	-9.307386	1.304632
835.994770	-0.973923	1.870984
836.303394	2.019651	17.000669
836.611962	-15.375441	-7.676090
836.920473	42.230633	25.172317
837.228929	15.773910	7.939039
837.537328	8.006799	11.579873
837.845672	-0.569386	32.373076
838.153959	-25.165238	-44.408053
838.462190	15.207559	19.266076
838.770365	9.220410	11.822595
839.078483	-9.145571	-28.873831
839.386546	11.162188	10.366262
839.694552	-26.297941	3.731854
840.002502	-21.928941	-33.404646
840.310396	8.573151	2.922780
840.618233	5.660484	-24.747553
840.926015	-3.967497	-1.365312
841.233739	4.123244	23.230539
841.541408	-11.330071	-23.048498
841.849020	19.414744	8.909928
842.156576	36.809836	20.236965
842.464076	-13.514571	-5.329775
842.771519	46.276003	43.538299
843.078906	44.172410	35.123928
843.386237	12.294892	16.596132
843.693511	-1.944812	30.754928
844.000729	7.035910	33.424873
844.307890	-17.721756	-12.692350
844.614995	15.207559	26.547743
844.922043	30.984503	60.528854
845.229035	51.211355	47.260039
845.535970	-51.702867	-32.352850
845.842849	13.913040	-5.572498
846.149671	0.967855	-36.236405
846.456437	10.272207	7.777225
846.763146	1.372392	-0.879868
847.069799	6.955003	-4.520701
847.376395	-13.757293	-14.553220
847.682934	-1.297553	17.081576
847.989417	25.968244	29.055873
848.295843	12.133077	7.696317
848.602213	0.401503	-1.122590
848.908526	4.689596	-24.747553
849.214782	-11.815516	30.107669
849.520981	-32.042367	-46.188016
849.827124	-33.579608	-11.316924
850.133210	-23.385275	-10.831479
850.439239	-20.877145	-46.430738
850.745212	-31.314201	-20.459461
851.051128	-25.084330	-31.705590
851.356987	32.440836	16.353410
851.662789	-16.184516	-13.096887
851.968534	-8.174682	-13.339609
852.274223	15.045744	35.852095
852.579854	11.728540	-9.213331
852.885429	11.081281	3.974576
853.190947	-29.372423	-31.867405
853.496408	-12.786404	-20.135831
853.801812	-23.142553	-30.977424
854.107160	15.045744	-15.847738
854.412450	-4.048404	16.272502
854.717683	-10.197367	-31.624683
855.022859	-43.693034	-57.595961
855.327979	10.353114	-18.113146
855.633041	8.734966	11.822595
855.938046	-26.136127	10.447169
856.242995	30.741781	2.032799
856.547886	28.800003	29.217688
856.852720	34.058984	21.369669
857.157497	1.857836	15.625243
857.462217	-2.187534	-17.304072
857.766880	-19.582627	7.534502
858.071486	-26.864293	-20.621275
858.376035	-10.844627	-40.524498
858.680526	-8.498312	-14.148683
858.984961	-61.249941	-65.201257
859.289338	-42.964867	-39.149072
859.593658	12.052170	32.373076
859.897921	1.210577	13.036206
860.202126	27.748207	1.709169
860.506275	-19.501719	-43.841701
860.810366	-20.796238	-45.136220
861.114399	-4.938386	19.751521
861.418376	-24.356164	-25.152090
861.722295	-11.896423	-18.032238
862.026157	24.916447	61.742465
862.329961	-23.061645	-8.323350
862.633709	-5.181108	-0.637146
862.937398	-10.116460	9.719002
863.241031	-8.417404	-7.756998
863.544606	-62.948997	-38.744535
863.848124	3.880522	12.793484
864.151584	10.029484	5.107280
864.454987	-3.805682	1.223725
864.758332	-7.689238	-13.339609
865.061620	-6.799256	-22.886683
865.364850	-30.666941	-3.064368
865.668023	-36.573182	-29.601998
865.971138	21.437429	10.932613
866.274196	48.945947	40.140188
866.577196	-4.938386	12.955299
866.880139	-31.556923	-20.702183
867.183024	-28.644256	-20.459461
867.485852	51.454077	30.754928
867.788622	36.405299	14.007095
868.091334	-3.643867	-0.798961
868.393989	-15.618164	-32.433757
868.696586	-19.016275	-13.986868
868.999125	-36.815904	-25.475720
869.301607	-19.987164	-27.093868
869.604031	9.867670	-30.734701
869.906397	33.978077	18.618817
870.208706	24.107373	-18.194053
870.510957	24.026466	8.181762
870.813150	11.890355	4.540928
871.115285	-14.242738	-11.640553
871.417363	-13.352756	-13.420516
871.719382	8.977688	8.181762
872.021344	-14.647275	-30.977424
872.323248	-2.915701	-0.798961
872.625094	-21.686219	-22.967590
872.926883	5.579577	-18.032238
873.228613	10.029484	33.991225
873.530286	-23.466182	-21.834887
873.831900	-20.472608	-2.093479
874.133457	-42.803053	-29.763812
874.434956	-15.860886	21.693299
874.736397	-20.796238	-8.970609
875.037780	-0.973923	0.657373
875.339105	1.453299	-0.798961
875.640371	12.456707	18.457002
875.941580	-6.880164	24.848687
876.242731	-17.964478	-1.527127
876.543824	-24.113441	-7.433368
876.844859	-42.479423	-51.527905
877.145835	-26.378849	-0.960775
877.446754	-18.773553	-8.161535
877.747614	1.129670	-34.618257
878.048417	-0.812108	23.635076
878.349161	15.450281	-26.851146
878.649847	-18.854460	-8.485164
878.950475	11.728540	36.903891
879.251045	24.835540	22.583280
879.551556	1.776929	23.311447
879.852010	10.353114	34.072132
880.152405	-0.812108	-10.346035
880.452741	35.596225	36.013910
880.753020	17.230244	0.171928
881.053240	0.239688	-22.401238
881.353402	20.951984	7.291780
881.653506	31.874484	-2.659831
881.953552	-15.779978	-7.352461
882.253539	55.903984	46.855502
882.553467	2.747818	2.680058
882.853338	23.864651	29.622225
883.153150	-25.084330	-29.763812
883.452903	-28.077904	-46.107109
883.752598	-3.643867	-23.129405
884.052235	-3.239330	11.013521
884.351814	2.666910	-4.925238
884.651333	-20.310793	11.903502
884.950795	-40.699460	-42.951720
885.250198	11.243096	0.252836
885.549542	-2.025719	11.256243
885.848828	-32.770534	-40.362683
886.148055	12.942151	-11.397831
886.447224	9.382225	4.945465
886.746335	-5.423830	-18.355868
887.045386	2.505096	17.000669
887.344379	-10.844627	-5.087053
887.643314	-16.265423	-15.362294
887.942190	10.110392	24.848688
888.241007	-0.164849	-29.844720
888.539766	-21.038960	1.951891
888.838465	-12.948219	8.829021
889.137107	-11.815516	-25.475720
889.435689	11.647633	3.812762
889.734213	37.457096	22.097836
890.032678	-13.676386	-14.715035
890.331085	-21.038960	-7.028831
