wavelength	0.005556	0.005465

178.106480	-28.236685	-19.984130
178.493382	-5.857696	2.068196
178.880256	-5.857696	2.068196
179.267103	-9.660344	-11.443341
179.653922	-16.699289	3.119992
180.040713	-15.971122	22.052325
180.427476	17.848174	47.619066
180.814211	-15.162048	-9.420656
181.200918	33.382396	31.599399
181.587598	16.958193	-27.058471
181.974250	-22.120085	-27.301193
182.360873	18.009989	35.644770
182.747469	44.466711	24.722270
183.134037	-28.026326	-0.682656
183.520577	33.948748	16.874251
183.907089	13.479174	35.968399
184.293573	12.265563	-0.439934
184.680029	-2.702307	11.048918
185.066457	11.941933	6.032659
185.452857	19.547230	3.686344
185.839229	7.653841	-2.867156
186.225573	-43.803270	-34.663767
186.611889	-3.754104	3.443622
186.998176	-24.790030	-26.815749
187.384436	-29.887196	-40.165471
187.770668	8.220193	4.738140
188.156871	-1.245974	16.631529
188.543046	15.340044	-1.249008
188.929193	5.550248	-9.097027
189.315312	24.320767	-1.734453
189.701403	32.006970	15.417918
190.087466	-26.408178	-37.657341
190.473500	41.311322	44.140047
190.859506	-7.152215	0.288233
191.245484	37.751396	18.006955
191.631434	-32.395326	-33.935601
192.017355	-31.667159	-57.965101
192.403248	-8.446733	-17.025953
192.789113	-11.521215	-5.537101
193.174949	-10.469419	3.767251
193.560757	-4.158641	-0.844471
193.946537	8.867452	-2.624434
194.332288	18.171804	-6.184360
194.718011	-8.608548	-31.022934
195.103705	-22.848252	-26.573027
195.489371	-36.521604	-41.459990
195.875009	-41.861493	-43.887212
196.260618	30.227007	17.036066
196.646199	-22.039178	-23.822175
197.031751	-15.809307	-6.427082
197.417275	-17.831993	-22.770378
197.802771	1.343063	-29.809323
198.188237	1.343063	2.958177
198.573676	-6.100419	-14.194193
198.959085	5.631156	15.984270
199.344466	12.912822	11.372547
199.729819	-36.117067	-18.725008
200.115143	-22.281900	-17.754119
200.500438	15.501859	0.854584
200.885705	28.042507	12.424344
201.270943	2.880304	-1.329916
201.656152	23.107156	41.955547
202.041333	26.505267	18.654214
202.426485	-23.576419	-42.835416
202.811608	-2.378678	-17.996841
203.196703	-6.666770	-3.838045
203.581769	41.796767	47.052714
203.966806	-14.919326	0.773677
204.351814	7.977470	5.223584
204.736794	67.444415	53.768029
205.121745	9.595619	-1.410823
205.506667	11.861026	26.097696
205.891560	-19.611956	5.547214
206.276424	-18.074715	-18.401378
206.661260	0.210359	-1.815360
207.046066	-3.106844	14.042492
207.430844	-10.226696	-9.582471
207.815593	10.485600	8.217159
208.200313	8.462915	-12.252416
208.585003	-75.599881	-61.605934
208.969665	33.544211	46.081825
209.354299	-14.838419	5.466307
209.738903	2.961211	-15.326897
210.123478	36.861415	29.495807
210.508024	29.660656	38.071992
210.892541	22.864433	16.712436
211.277029	6.844767	-3.190786
211.661488	16.877285	47.376344
212.045918	35.809619	23.832288
212.430318	0.695804	5.223584
212.814690	7.330211	43.654603
213.199033	-1.974141	-7.883416
213.583346	68.577119	58.784288
213.967631	-9.174900	25.935881
214.351886	-9.822159	-16.459601
214.736112	16.230026	11.534362
215.120309	12.912822	29.576714
215.504476	8.786544	-17.511397
215.888615	43.172193	51.826251
216.272724	8.301100	-0.763564
216.656804	34.353285	3.200899
217.040854	39.045915	23.670473
217.424876	4.822081	6.922640
217.808868	13.721896	9.754399
218.192830	-17.831993	-7.964323
218.576764	15.501859	13.718862
218.960668	34.838730	28.201288
219.344543	47.622100	52.149881
219.728388	45.113970	68.816807
220.112204	42.282211	30.304881
220.495991	-32.880770	-0.682656
220.879748	1.343063	-29.323878
221.263476	-22.039178	-39.841841
221.647174	32.654230	21.890510
222.030843	-14.433881	-9.177934
222.414482	20.113581	28.039473
222.798092	27.718878	11.372547
223.181672	25.453470	34.350251
223.565223	24.158952	11.696177
223.948744	1.343063	1.501844
224.332236	18.980878	-8.287953
224.715698	-8.851270	-12.576045
225.099131	14.450063	5.870844
225.482534	-11.844844	-39.841841
225.865907	42.039489	83.218325
226.249251	53.609248	54.981640
226.632565	27.961600	5.789936
227.015850	3.608470	-11.524249
227.399104	-55.777567	-42.269064
227.782329	41.392230	18.249677
228.165525	36.942322	15.741547
228.548691	21.974452	29.900344
228.931827	-43.398733	-69.939397
229.314933	-12.815733	-20.424064
229.698009	-32.718956	-35.958286
230.081056	-32.395326	-46.071712
230.464073	48.350267	20.595992
230.847060	-31.990789	-43.725397
231.230017	32.006970	15.903362
231.612944	22.540804	23.670473
231.995842	31.116989	13.557047
232.378709	-15.081141	5.709029
232.761547	-25.194567	2.149103
233.144355	6.440230	30.871233
233.527133	16.149119	58.784288
233.909881	-15.081141	-4.728027
234.292599	-18.236530	-42.107249
234.675287	2.961211	0.692770
235.057945	-10.064881	-0.439934
235.440574	-16.456567	1.906381
235.823172	-0.679622	-26.734841
236.205740	-52.217641	-26.087582
236.588278	-46.554122	-15.569619
236.970786	-24.709122	-23.094008
237.353264	32.573322	19.139659
237.735712	-15.000233	-27.705730
238.118130	0.210359	17.359696
238.500517	-12.815733	-18.482286
238.882875	45.680322	36.615659
239.265202	24.239859	37.505640
239.647499	-35.874344	-37.900064
240.029767	-28.430863	-24.388527
240.412003	0.048544	32.489381
240.794210	37.832304	15.903362
241.176387	11.132859	-1.572638
241.558533	-5.453159	-4.566212
241.940649	6.682952	-22.770378
242.322734	-19.854678	-32.560175
242.704790	33.706026	29.495807
243.086815	21.650822	16.469714
243.468810	-24.385493	-19.129545
243.850774	2.152137	-6.669804
244.232709	38.479563	43.492788
244.614612	-11.763937	-21.314045
244.996486	20.356304	12.019807
245.378329	10.809230	13.880677
245.760142	35.485989	44.625492
246.141924	-5.938604	-7.478878
246.523676	-21.634641	-21.961304
246.905397	-7.961289	-9.016119
247.287088	-7.233122	-6.588897
247.668748	-1.893233	-2.705341
248.050378	-4.239548	-13.789656
248.431978	-12.492104	-3.109878
248.813547	-18.883789	-1.491730
249.195085	31.278804	27.068584
249.576593	5.064804	19.544196
249.958070	37.346859	8.621696
250.339517	11.213767	-21.152230
250.720933	31.036081	30.223973
251.102318	14.207341	13.395233
251.483673	-14.191159	-22.770378
251.864997	-24.142770	-0.925378
252.246291	-3.673196	-0.116304
252.627554	-5.372252	13.233418
253.008786	4.983896	3.443622
253.389987	1.828507	-2.624434
253.771158	-3.673196	8.136251
254.152298	-4.805900	-24.064897
254.533408	-40.000622	-60.958675
254.914486	0.695804	-4.485304
255.295534	-14.029344	-6.103453
255.676551	4.902989	5.304492
256.057537	4.498452	-13.061490
256.438492	33.463304	5.709029
256.819417	49.968415	44.787307
257.200310	14.207341	4.171788
257.581173	10.647415	-15.407804
257.962005	22.621711	15.256103
258.342806	-16.942011	-36.929175
258.723576	-9.741252	3.767251
259.104315	-27.055437	12.424344
259.485023	-22.120085	-56.913304
259.865700	-4.967715	-11.362434
260.246347	19.304507	32.813010
260.626962	9.595619	19.463288
261.007546	41.796767	34.431159
261.388099	-11.035770	-17.915934
261.768621	17.443637	-2.058082
262.149112	-23.090974	0.611862
262.529573	-4.239548	-0.682656
262.910002	-15.323863	3.524529
263.290399	43.495822	22.295047
263.670766	53.285619	15.822455
264.051102	-20.906474	4.252696
264.431406	-2.783215	-1.896267
264.811680	19.385415	-9.825193
265.191922	0.695804	37.991084
265.572133	-7.718567	-28.919341
265.952313	3.042119	15.822455
266.332461	-26.165456	-5.132564
266.712578	-6.343141	3.281807
267.092665	48.026637	65.418696
267.472719	-22.848252	-18.563193
267.852743	-12.734826	1.016399
268.232735	-42.185122	-39.113675
268.612696	-12.653919	-40.408193
268.992626	-16.213844	-30.618397
269.372524	18.738156	13.799770
269.752391	84.515878	77.392992
270.132226	46.165767	63.315103
270.512030	-15.000233	11.857992
270.891803	50.534767	32.489381
271.271545	-13.624807	-29.485693
271.651255	-17.427456	-16.297786
272.030933	11.618304	10.563473
272.410580	39.207730	14.366122
272.790196	49.078433	-5.132564
273.169780	26.424359	-13.466027
273.549332	26.909804	57.408862
273.928853	26.019822	23.023214
274.308343	18.171804	26.825862
274.687800	-4.401363	11.777084
275.067227	-1.731419	-8.854304
275.446622	-10.873956	-2.462619
275.825985	-15.728400	-13.870564
276.205316	24.968026	5.466307
276.584616	-5.938604	-28.110267
276.963885	-9.417622	-0.763564
277.343121	-21.715548	-34.178323
277.722326	-7.233122	-27.463008
278.101499	-27.945419	-22.932193
278.480641	68.658026	71.486751
278.859751	47.945730	29.900344
279.238829	-13.786622	-27.463008
279.617875	9.271989	17.926047
279.996890	-22.686437	-15.245990
280.375873	-23.090974	-44.049027
280.754824	-3.430474	-11.281527
281.133743	-32.314419	-26.573027
281.512631	-52.298548	-48.256212
281.891486	-2.864122	-15.812341
282.270310	-4.886807	-2.543527
282.649102	-6.262233	14.770659
283.027862	20.841748	28.039473
283.406590	-23.980956	-27.220286
283.785286	-17.912900	11.857992
284.163950	-41.780585	-38.223693
284.542582	8.462915	15.175196
284.921183	-0.760530	15.417918
285.299751	19.142693	12.747973
285.678287	15.987304	8.136251
286.056792	34.919637	30.709418
286.435264	15.097322	32.003936
286.813704	-36.602511	-38.142786
287.192112	-20.906474	-38.709138
287.570489	11.375581	13.233418
287.948833	-3.754104	-1.896267
288.327145	-24.547307	15.903362
288.705425	11.213767	32.489381
289.083672	20.922656	26.664047
289.461888	-10.064881	13.637955
289.840071	-39.757900	-2.705341
290.218223	-31.909881	-8.207045
290.596342	-13.301178	10.401659
290.974429	14.207341	7.812622
291.352483	-14.919326	-16.702323
291.730506	-10.388511	-18.482286
292.108496	-28.026326	-31.265656
292.486454	-1.731419	1.340029
292.864379	15.178230	8.055344
293.242273	-17.022919	-48.903471
293.620134	-6.181326	1.987288
293.997963	-28.349956	-10.957897
294.375759	21.650822	30.304881
294.753523	-6.828585	2.553640
295.131255	-33.285307	-20.504971
295.508954	-29.401752	-29.971138
295.886621	17.200915	0.126418
296.264255	-1.650511	-8.287953
296.641857	-7.394937	-13.546934
297.019427	20.599026	39.447418
297.396964	9.919248	-1.815360
297.774469	5.226619	-3.109878
298.151941	-6.990400	9.188047
298.529380	-47.767733	-47.123508
298.906788	-3.915919	16.874251
299.284162	-15.323863	-1.329916
299.661504	-18.560159	-0.197212
300.038814	6.278415	-3.028971
300.416090	-2.783215	-14.275101
300.793335	-2.864122	-38.628230
301.170546	4.741174	5.870844
301.547726	2.394859	6.679918
301.924872	-7.475844	7.731714
302.301986	-22.848252	-15.893249
302.679067	-6.262233	-26.249397
303.056115	9.757433	12.828881
303.433131	-4.401363	5.223584
303.810114	-39.110641	-24.388527
304.187064	-17.265641	-13.951471
304.563982	20.760841	21.162344
304.940866	-19.773770	-30.294767
305.317718	20.599026	15.417918
305.694537	11.294674	7.569899
306.071324	-30.938993	-49.469823
306.448077	27.880693	6.437196
306.824798	12.751007	-6.507990
307.201486	36.537785	1.987288
307.578141	8.058378	-4.647119
307.954763	48.592989	12.343436
308.331352	-0.517807	6.679918
308.707908	51.182026	46.486362
309.084432	55.874656	35.402047
309.460922	-5.857696	-19.048638
309.837379	9.838341	13.395233
310.213804	-17.103826	-0.682656
310.590195	23.673507	-7.721601
310.966554	-10.469419	-19.776804
311.342879	14.450063	-22.770378
311.719172	0.776711	-8.773397
312.095431	30.146100	12.586159
312.471657	9.271989	2.391825
312.847851	-14.919326	2.715455
313.224011	-24.790030	-35.068304
313.600138	-7.152215	-5.051656
313.976232	-23.333696	-6.669804
314.352292	-25.356381	-16.945045
314.728320	10.971044	-10.957897
315.104314	21.893544	10.887103
315.480275	15.663674	30.871233
315.856203	-4.967715	-5.537101
316.232098	71.247063	55.386177
316.607960	14.369156	11.372547
316.983788	21.893544	-8.530675
317.359583	1.909415	-3.028971
317.735345	4.902989	15.256103
318.111073	-34.094381	-27.382101
318.486769	-6.990400	-24.793064
318.862430	18.171804	1.825473
319.238059	20.032674	-31.265656
319.613654	-13.382085	-35.311027
319.989216	-51.570381	-23.741267
320.364744	-36.036159	-30.052045
320.740239	22.945341	21.162344
321.115701	-14.191159	-6.750712
321.491129	33.382396	29.900344
321.866524	-41.942400	-28.433897
322.241885	-34.984363	-41.621804
322.617213	-8.446733	10.158936
322.992507	9.838341	-3.109878
323.367768	27.637970	32.893918
323.742995	37.185044	14.527936
324.118189	11.780119	9.026233
324.493349	-10.712141	-29.971138
324.868475	43.819452	58.784288
325.243568	-2.864122	-7.559786
325.618628	-4.644085	-17.592304
325.993654	-16.537474	-8.126138
326.368646	5.307526	21.485973
326.743604	10.890137	34.592973
327.118529	-14.352974	-14.194193
327.493421	9.676526	21.000529
327.868278	-39.676993	-35.634656
328.243102	0.533989	-9.258841
328.617892	-33.770752	-26.815749
328.992648	1.585785	1.744566
329.367371	43.010378	45.596381
329.742060	1.100341	11.453455
330.116715	54.094693	54.738918
330.491336	-9.255807	11.777084
330.865924	40.583156	8.702603
331.240477	28.447044	7.731714
331.614997	-7.071307	-32.398360
331.989483	-13.624807	-10.067916
332.363935	-23.333696	12.990696
332.738354	4.336637	-6.669804
333.112738	-23.576419	-14.679638
333.487088	39.693174	22.375955
333.861405	-8.204011	21.081436
334.235687	-32.880770	-37.576434
334.609936	32.492415	17.359696
334.984150	-21.877363	-3.757138
335.358331	14.611878	40.256492
335.732478	-9.093993	-29.809323
336.106590	-10.712141	-24.873971
336.480669	2.718489	22.537770
336.854713	17.524544	-15.812341
337.228724	-15.081141	-32.155638
337.602700	25.858007	-21.071323
337.976642	-39.515178	-57.075119
338.350550	-20.663752	-17.349582
338.724424	24.401674	-15.245990
339.098264	16.230026	38.476529
339.472070	0.938526	22.942307
339.845842	25.696193	22.942307
340.219579	6.035693	0.611862
340.593282	60.810007	49.803566
340.966951	-1.812326	7.327177
341.340586	2.152137	15.903362
341.714186	52.476544	46.809992
342.087752	-9.741252	-6.669804
342.461284	15.744581	25.369529
342.834782	-16.942011	-27.948453
343.208245	24.968026	24.884084
343.581674	21.489007	35.725677
343.955069	-10.064881	-13.304212
344.328429	-25.680011	-0.520841
344.701755	-0.679622	-0.520841
345.075047	29.984285	31.356677
345.448304	-41.942400	-74.308397
345.821526	37.265952	31.356677
346.194715	20.599026	40.418307
346.567869	22.298081	24.884084
346.940988	30.388822	-2.219897
347.314073	25.129841	29.414899
347.687123	34.353285	41.551010
348.060139	-9.336715	8.055344
348.433121	-8.365826	3.929066
348.806067	-31.667159	-29.566601
349.178980	0.776711	-19.938619
349.551858	-23.576419	14.932473
349.924701	-6.100419	-7.155249
350.297509	37.023230	27.958566
350.670283	-18.155622	-5.375286
351.043023	34.676915	-6.184360
351.415727	-51.004030	-8.611582
351.788397	-6.181326	1.987288
352.161033	22.055359	9.835307
352.533633	-10.064881	-15.245990
352.906199	34.110563	19.463288
353.278731	22.378989	21.324159
353.651227	0.857619	0.773677
354.023689	-13.705715	-26.411212
354.396116	-28.916307	2.796362
354.768508	-3.025937	2.230010
355.140866	-5.048622	24.964992
355.513188	17.443637	-8.368860
355.885476	-14.352974	3.767251
356.257729	24.158952	17.521510
356.629947	-14.757511	-10.472453
357.002130	-19.369233	-37.171897
357.374279	-3.754104	-16.702323
357.746392	-6.181326	-31.022934
358.118471	4.498452	-4.808934
358.490514	-1.650511	-5.375286
358.862523	2.961211	-10.957897
359.234497	-22.605530	-8.126138
359.606436	4.983896	25.531344
359.978339	39.693174	10.968010
360.350208	-10.469419	-31.427471
360.722042	15.987304	14.932473
361.093841	35.728711	-6.588897
361.465604	15.178230	5.385399
361.837333	10.161970	-2.543527
362.209026	-11.521215	-10.634267
362.580685	32.492415	-13.951471
362.952308	-0.922344	11.372547
363.323896	2.233044	13.314325
363.695449	1.585785	8.298066
364.066967	11.294674	8.540788
364.438450	7.896563	-9.663378
364.809897	-32.961678	-40.570008
365.181310	11.294674	24.075010
365.552687	-3.996826	0.045510
365.924028	7.492026	-11.281527
366.295335	-30.534456	-17.268675
366.666606	-3.511381	-42.673601
367.037842	-9.174900	-14.356008
367.409043	30.955174	22.133233
367.780209	19.547230	19.463288
368.151339	-6.666770	25.045899
368.522434	5.550248	-20.504971
368.893493	-3.268659	-44.372656
369.264517	-21.715548	-28.110267
369.635506	-21.149196	-25.602138
370.006459	1.019433	-8.045230
370.377377	32.087878	32.003936
370.748260	23.673507	30.871233
371.119107	-17.346548	-9.420656
371.489918	14.369156	23.265936
371.860694	-13.948437	-30.537490
372.231435	30.065193	41.389196
372.602140	5.307526	1.340029
372.972809	-7.314030	-8.854304
373.343444	-5.129530	-3.028971
373.714042	10.485600	0.935492
374.084605	18.414526	13.476140
374.455132	-1.569604	-1.168101
374.825624	7.330211	-17.511397
375.196080	-12.330289	16.226992
375.566501	2.394859	-2.543527
375.936885	-5.129530	-0.601749
376.307235	-11.116678	-9.987008
376.677548	-4.401363	-8.854304
377.047826	-14.433881	-10.391545
377.418068	17.767267	-16.540508
377.788275	16.068211	4.576325
378.158445	24.482581	-1.087193
378.528580	44.952156	36.615659
378.898679	-14.029344	-0.520841
379.268743	4.174822	-0.035397
379.638770	28.204322	-6.346175
380.008762	-5.614974	13.718862
380.378718	60.971822	66.470492
380.748638	2.718489	-19.938619
381.118523	-65.648270	-55.295156
381.488371	-46.554122	-33.531064
381.858184	-33.608937	-22.042212
382.227960	14.692785	31.842122
382.597701	-4.724993	-13.789656
382.967406	-39.757900	-42.754508
383.337075	5.550248	-5.456193
383.706708	-9.013085	-15.407804
384.076304	-14.919326	-43.887212
384.445865	-38.867919	-57.156027
384.815390	-18.721974	-19.534082
385.184879	-1.407789	-28.919341
385.554332	-7.556752	-34.097416
385.923749	22.783526	36.777473
386.293130	-42.346937	-65.004045
386.662474	14.854600	4.090881
387.031783	18.738156	-7.802508
387.401055	17.605452	1.501844
387.770292	7.572933	11.615270
388.139492	-2.297770	19.706010
388.508656	-30.372641	-22.446749
388.877784	9.433804	-5.941638
389.246876	-17.022919	-33.126527
389.615931	-48.091363	-41.379082
389.984950	-1.731419	10.806196
390.353933	35.243267	50.693547
390.722880	1.990322	14.285214
391.091791	20.922656	19.867825
391.460665	12.346470	-2.786249
391.829503	-19.207419	-7.397971
392.198304	5.064804	15.175196
392.567070	-0.275085	0.611862
392.935799	-22.039178	-29.162064
393.304491	-19.126511	-9.744286
393.673148	8.948359	15.903362
394.041768	-8.689456	7.003547
394.410351	-19.207419	-1.815360
394.778898	22.378989	33.217547
395.147409	38.641378	57.004325
395.515883	7.087489	13.799770
395.884321	0.453081	3.524529
396.252722	28.042507	44.706399
396.621087	0.372174	31.842122
396.989415	18.819063	-0.197212
397.357707	-20.178307	1.582751
397.725962	30.065193	36.292029
398.094181	-47.444104	-23.741267
398.462363	34.596007	1.259122
398.830508	-31.990789	-50.036175
399.198617	-17.022919	-8.368860
399.566689	3.365748	3.524529
399.934725	47.136656	35.159325
400.302724	-51.894011	-30.375675
400.670687	-3.996826	9.268955
401.038612	-14.352974	-24.145804
401.406501	-56.020289	-47.123508
401.774354	-19.045604	5.870844
402.142169	44.709433	51.664436
402.509948	15.420952	-6.265267
402.877690	-37.816122	-27.705730
403.245396	-14.676604	-4.566212
403.613064	-33.932567	-20.909508
403.980696	-6.990400	-7.802508
404.348291	-40.728789	-14.356008
404.715849	-3.592289	2.634547
405.083370	4.660267	11.615270
405.450855	-34.741641	-22.932193
405.818303	16.068211	11.129825
406.185713	-1.003252	-6.184360
406.553087	21.165378	15.984270
406.920424	-4.724993	11.453455
407.287724	-2.621400	-31.589286
407.654987	-22.524622	-9.744286
408.022213	-26.165456	-12.414230
408.389402	-8.932178	-20.909508
408.756554	-36.278881	-29.323878
409.123669	3.123026	-2.058082
409.490748	-7.799474	-7.640693
409.857789	31.764248	31.437584
410.224793	-0.760530	-7.883416
410.591760	-2.135956	-5.860730
410.958689	9.191081	20.029640
411.325582	-18.964696	-23.903082
411.692438	32.977859	10.806196
412.059256	-10.631233	-26.492119
412.426038	0.533989	-27.463008
412.792782	14.045526	5.223584
413.159489	-34.337104	-28.838434
413.526159	9.029267	17.440603
413.892792	1.343063	26.502233
414.259387	15.340044	14.527936
414.625945	-4.724993	-1.896267
414.992466	3.527563	-1.410823
415.358950	-51.651289	-52.948841
415.725396	-39.191548	-8.935212
416.091806	2.152137	-11.524249
416.458177	20.518119	-30.294767
416.824512	8.058378	-25.763953
417.190809	25.048933	20.838714
417.557069	11.780119	19.706010
417.923291	19.304507	45.434566
418.289476	7.006581	-8.854304
418.655624	0.210359	-4.242582
419.021734	29.337026	38.233807
419.387807	-13.948437	4.171788
419.753843	20.113581	15.903362
420.119841	22.136267	34.431159
420.485801	16.149119	42.036455
420.851724	24.320767	-3.190786
421.217609	28.770674	40.094677
421.583457	-21.958270	22.375955
421.949268	25.696193	5.951751
422.315041	-2.783215	12.909788
422.680776	-10.388511	25.450436
423.046474	25.777100	22.295047
423.412134	-19.692863	-9.825193
423.777756	-24.870937	-28.352990
424.143341	-20.016493	-11.362434
424.508888	6.682952	-1.168101
424.874398	-22.848252	-36.767360
425.239870	-8.284919	-6.427082
425.605304	12.751007	10.725288
425.970701	-28.188141	-37.495527
426.336059	17.362730	13.637955
426.701381	-0.841437	-5.051656
427.066664	11.294674	38.152899
427.431909	-5.776789	8.702603
427.797117	-9.660344	-10.715175
428.162287	-12.330289	20.110547
428.527419	0.614896	-22.284934
428.892514	-1.812326	-4.808934
429.257570	-24.790030	-46.718971
429.622589	-1.893233	-16.297786
429.987570	23.107156	7.246270
430.352513	3.689378	15.741547
430.717418	-15.000233	6.760825
431.082285	45.518507	59.027010
431.447114	-14.110252	-11.766971
431.811905	9.191081	-1.815360
432.176659	8.948359	5.223584
432.541374	75.292433	45.353659
432.906051	21.327193	16.388807
433.270691	-10.631233	-16.540508
433.635292	-6.990400	2.877270
433.999855	20.356304	37.020196
434.364380	44.223989	39.285603
434.728867	4.579359	-3.514416
435.093317	-37.492493	-60.877767
435.457728	13.883711	8.217159
435.822100	2.313952	3.443622
436.186435	-8.689456	-22.365841
436.550732	26.667081	16.874251
436.914990	-16.942011	-13.627841
437.279210	25.291656	40.013770
437.643392	32.735137	46.243640
438.007536	1.666693	14.204307
438.371642	29.337026	33.136640
438.735709	-12.087567	-0.278119
439.099739	4.336637	-4.970749
439.463730	15.906396	7.569899
439.827682	4.822081	-25.844860
440.191597	-50.194956	-36.686453
440.555473	-34.984363	-25.602138
440.919310	16.149119	-5.051656
441.283110	28.770674	6.599010
441.646871	-25.437289	-19.695897
442.010593	17.524544	37.101103
442.374278	23.997137	3.767251
442.737924	39.774081	25.126807
443.101531	9.029267	-25.763953
443.465100	5.712063	1.259122
443.828631	-10.469419	8.136251
444.192123	-8.123104	-8.207045
444.555577	-30.534456	-29.890230
444.918992	-27.298159	-20.828601
445.282368	-43.803270	-53.110656
445.645707	29.984285	21.405066
446.009006	17.039100	17.197881
446.372267	2.152137	-1.572638
446.735490	28.608859	22.456862
447.098674	20.356304	27.068584
447.461819	-9.983974	-3.028971
447.824926	15.987304	-20.019527
448.187994	2.152137	-7.640693
448.551023	-14.433881	-7.964323
448.914014	31.602433	27.392214
449.276966	-14.757511	-37.171897
449.639880	-18.883789	-18.967730
450.002754	15.340044	35.644770
450.365590	25.938915	49.884473
450.728388	-13.139363	25.612251
451.091146	-3.754104	-15.245990
451.453866	-15.242956	-1.734453
451.816547	30.469730	38.395622
452.179189	49.321156	1.663659
452.541793	34.919637	38.719251
452.904357	-21.715548	-15.488712
453.266883	-27.136344	-2.948064
453.629370	-38.706104	-26.896656
453.991818	-43.317826	-33.207434
454.354227	-14.191159	-23.013101
454.716597	-81.020678	-31.832008
455.078929	34.838730	13.880677
455.441221	27.152526	34.350251
455.803475	21.812637	4.009973
456.165689	-24.870937	-28.595712
456.527865	42.039489	28.605825
456.890001	-22.200993	1.987288
457.252099	6.521137	5.709029
457.614157	9.676526	16.146084
457.976177	12.670100	-2.948064
458.338157	-9.983974	-4.970749
458.700099	12.022841	0.288233
459.062001	33.382396	-1.896267
459.423864	1.262156	-37.414619
459.785688	-6.585863	6.437196
460.147473	18.090896	19.706010
460.509219	-9.174900	-13.142397
460.870926	-42.266030	-33.854693
461.232593	-14.514789	-13.142397
461.594221	-31.505344	-40.570008
461.955810	14.045526	21.000529
462.317360	34.596007	41.065566
462.678871	-18.317437	0.045510
463.040342	-15.000233	-4.647119
463.401775	0.129452	24.317733
463.763167	18.171804	2.553640
464.124521	-9.013085	16.631529
464.485835	17.281822	3.119992
464.847110	-52.379456	-44.210841
465.208346	-4.724993	-26.411212
465.569542	6.116600	-4.647119
465.930699	-15.323863	-0.359027
466.291817	4.579359	7.650807
466.652895	5.307526	-16.135971
467.013933	-22.281900	-29.890230
467.374933	24.725304	12.505251
467.735892	20.760841	30.628510
468.096813	-12.896641	3.281807
468.457694	14.935507	-4.323490
468.818535	6.359322	9.430770
469.179337	4.498452	-0.197212
469.540099	-12.653919	-18.077749
469.900822	23.268970	36.049307
470.261506	-7.475844	-41.540897
470.622149	-14.029344	14.285214
470.982753	23.430785	7.327177
471.343318	-12.653919	-26.330304
471.703843	15.178230	-17.430490
472.064328	9.029267	15.984270
472.424774	-52.783993	-51.168878
472.785180	-23.819141	6.679918
473.145546	-42.023307	-55.699693
473.505873	-7.637659	-7.236156
473.866160	13.802804	15.175196
474.226407	15.097322	16.955159
474.586615	16.472748	15.417918
474.946783	-56.343919	-43.563582
475.306911	3.608470	17.602418
475.666999	-5.938604	-9.663378
476.027047	-20.016493	-9.663378
476.387056	35.647804	42.602807
476.747025	12.831915	18.330584
477.106954	-14.595696	1.825473
477.466843	12.103748	-15.650527
477.826692	21.327193	4.980862
478.186502	-20.906474	-15.893249
478.546271	-10.873956	8.702603
478.906001	9.191081	20.757807
479.265690	-0.032363	11.291640
479.625340	7.330211	-4.404397
479.984950	33.867841	2.715455
480.344519	1.747600	2.149103
480.704049	7.896563	-4.808934
481.063539	25.615285	24.560455
481.422989	29.903378	22.052325
481.782398	-21.230104	5.142677
482.141768	-15.890215	-8.935212
482.501098	19.789952	34.512066
482.860387	-40.405159	-21.071323
483.219637	-1.974141	3.039084
483.578846	9.919248	10.563473
483.938015	4.336637	5.709029
484.297144	18.495433	5.061770
484.656233	-27.217252	-7.155249
485.015282	-16.132937	-13.546934
485.374291	20.599026	35.321140
485.733259	-36.117067	-38.385508
486.092187	1.990322	7.974436
486.451075	21.246285	9.511677
486.809923	-39.272456	-40.570008
487.168730	-19.126511	-11.686064
487.527497	-33.366215	-9.906101
487.886224	5.954785	19.948733
488.244910	-33.689844	-48.822564
488.603557	12.993730	-5.294378
488.962162	-25.356381	-8.692490
489.320728	-16.294752	-19.534082
489.679253	31.359711	5.061770
490.037738	36.942322	25.935881
490.396182	-53.107622	-38.628230
490.754586	-17.912900	14.042492
491.112950	3.284841	-1.168101
491.471273	-0.598715	-20.343156
491.829555	-3.592289	-14.841453
492.187798	-34.660733	-50.036175
492.545999	28.527952	3.686344
492.904160	-35.146178	-59.745064
493.262281	8.139285	-15.488712
493.620361	-13.139363	-21.475860
493.978401	-3.673196	3.767251
494.336400	12.589193	9.107140
494.694358	-13.705715	-35.149212
495.052276	-10.307604	-24.469434
495.410153	26.343452	9.754399
495.767990	-26.650900	-48.822564
496.125786	40.259526	8.136251
496.483541	-18.155622	-21.394953
496.841255	-26.327270	-10.634267
497.198929	-22.767344	-30.132953
497.556563	16.149119	15.094288
497.914155	15.501859	10.320751
498.271707	-0.032363	24.884084
498.629218	25.129841	18.006955
498.986688	5.145711	-23.094008
499.344118	-32.071696	-60.068693
499.701506	-28.673585	-46.718971
500.058854	-16.456567	-28.191175
500.416161	-29.159030	-18.320471
500.773428	23.835322	28.848547
501.130653	24.158952	22.861399
501.487837	-6.909493	-14.275101
501.844981	-1.326881	1.987288
502.202084	-9.093993	-20.585878
502.559146	-43.479641	-50.359804
502.916167	-11.844844	-1.491730
503.273146	-8.932178	-15.812341
503.630085	6.116600	7.488992
503.986984	-4.563178	-6.346175
504.343841	-23.657326	-21.071323
504.700657	3.527563	-11.362434
505.057432	-1.165067	16.226992
505.414166	-27.864511	-12.414230
505.770858	-47.363196	-45.748082
506.127510	18.576341	13.395233
506.484121	42.605841	46.162733
506.840691	6.359322	-12.899675
507.197219	-0.032363	22.942307
507.553707	5.469341	10.725288
507.910153	-13.948437	-48.256212
508.266558	22.055359	41.631918
508.622922	24.158952	35.482955
508.979245	4.013007	23.346844
509.335527	27.799785	13.880677
509.691767	-67.023696	-72.690249
510.047966	17.200915	11.777084
510.404124	5.145711	20.595992
510.760241	-32.638048	-1.410823
511.116316	22.864433	21.566881
511.472350	13.074637	28.767640
511.828343	-6.504956	27.392214
512.184295	-30.696270	0.530955
512.540205	6.116600	-25.035786
512.896073	-21.068289	-25.763953
513.251901	5.873878	20.353270
513.607687	-81.748844	-70.182119
513.963431	18.576341	6.841733
514.319135	-4.886807	5.951751
514.674796	35.485989	16.226992
515.030417	35.162359	10.563473
515.385996	17.524544	1.906381
515.741533	-20.178307	2.310918
516.097029	46.732119	53.201677
516.452483	13.236452	13.880677
516.807896	-58.528419	-59.583249
517.163268	11.537396	5.385399
517.518597	1.828507	-29.809323
517.873886	-10.793048	5.870844
518.229132	-3.511381	-9.177934
518.584337	-31.019900	-30.618397
518.939501	7.815656	-24.550341
519.294623	21.812637	8.136251
519.649703	18.495433	19.139659
520.004742	-30.858085	-20.019527
520.359738	24.725304	9.107140
520.714694	4.174822	3.119992
521.069607	14.935507	-15.731434
521.424479	12.265563	26.744955
521.779309	30.388822	1.663659
522.134097	10.161970	25.126807
522.488844	25.615285	26.016788
522.843549	12.427378	17.683325
523.198211	41.149507	32.084844
523.552833	23.026248	20.272362
523.907412	0.372174	-1.410823
524.261949	-10.550326	-20.828601
524.616445	-7.233122	-18.482286
524.970899	4.902989	-24.550341
525.325311	22.540804	23.913196
525.679681	-4.482270	2.472733
526.034009	-42.427844	-49.065286
526.388295	0.695804	-15.407804
526.742539	9.110174	14.851566
527.096742	38.236841	3.443622
527.450902	42.120396	15.337010
527.805020	-11.116678	-20.909508
528.159096	43.657637	15.417918
528.513131	8.948359	11.534362
528.867123	39.612267	22.052325
529.221073	15.501859	7.650807
529.574981	-11.278493	-29.323878
529.928847	-1.893233	-13.870564
530.282671	8.948359	4.252696
530.636453	8.624730	1.501844
530.990193	-21.958270	-28.595712
531.343891	9.271989	9.673492
531.697546	11.456489	13.314325
532.051159	2.475767	8.217159
532.404730	-2.297770	15.094288
532.758259	8.382007	18.735122
533.111746	-15.404770	-25.440323
533.465190	12.427378	26.421325
533.818593	-58.447511	-37.414619
534.171952	-39.029733	-30.618397
534.525270	-31.909881	-23.498545
534.878545	-3.511381	12.909788
535.231778	-4.644085	-12.737860
535.584969	1.828507	12.667066
535.938118	-30.210826	-15.245990
536.291224	15.420952	15.579733
536.644287	34.029656	19.139659
536.997309	3.932100	-20.909508
537.350288	-19.207419	-13.223304
537.703224	1.747600	-20.424064
538.056118	3.851193	2.068196
538.408970	15.987304	40.418307
538.761779	-12.815733	-23.579453
539.114546	-25.032752	-20.747693
539.467270	-9.498530	-0.359027
539.819951	31.926063	36.211122
540.172591	25.129841	6.841733
540.525187	-1.407789	23.023214
540.877741	43.819452	50.289010
541.230253	4.093915	9.107140
541.582722	40.744970	44.787307
541.935148	18.009989	-17.025953
542.287532	-0.355993	-12.818767
542.639873	11.861026	25.369529
542.992172	29.903378	5.789936
543.344427	11.132859	2.310918
543.696641	9.191081	6.922640
544.048811	-51.327659	-37.090990
544.400939	-9.174900	-24.307619
544.753024	3.203933	15.256103
545.105066	9.271989	1.178214
545.457066	19.789952	34.512066
545.809023	40.502248	43.816418
546.160937	-20.825567	-17.511397
546.512808	-24.385493	-36.362823
546.864636	-6.181326	5.628122
547.216422	19.385415	13.233418
547.568165	-0.113270	9.511677
547.919865	-37.492493	-49.469823
548.271522	5.064804	-7.155249
548.623136	38.641378	26.421325
548.974707	-9.013085	-32.883804
549.326236	14.369156	7.246270
549.677721	2.880304	15.903362
550.029164	46.813026	43.330973
550.380563	25.048933	81.519270
550.731920	4.013007	8.298066
551.083233	32.330600	43.411881
551.434504	54.337415	62.263307
551.785731	73.917007	74.318510
552.136916	51.910193	34.107529
552.488057	82.250470	69.302251
552.839156	64.208119	72.619455
553.190211	141.798322	144.384325
553.541223	97.946507	105.872399
553.892193	99.483748	120.759362
554.243119	144.953711	147.539714
554.594002	123.189619	129.416455
554.944841	117.040656	115.500381
555.295638	152.882637	196.488696
555.646391	174.242193	174.886418
555.997101	205.796081	199.401362
556.347768	233.951859	213.964696
556.698392	203.530674	213.641066
557.048972	230.068304	235.081529
557.399510	221.573026	238.479640
557.750004	335.328841	322.380622
558.100454	245.197989	258.706492
558.450862	307.415785	318.739788
558.801226	312.108415	299.160196
559.151546	323.920896	313.399899
559.501824	316.962859	312.267196
559.852058	374.245304	383.384807
560.202248	379.018841	375.051344
560.552395	409.601841	429.178399
560.902499	356.850211	363.805214
561.252560	429.181433	436.379159
561.602576	374.083489	408.466103
561.952550	443.421137	441.395418
562.302480	450.621896	465.344010
562.652366	453.291841	450.295233
563.002209	439.942119	473.353844
563.352009	448.518304	486.541751
563.701765	467.612452	466.800344
564.051477	467.369730	451.023399
564.401146	462.353470	480.959140
564.750771	475.460470	484.599973
565.100353	478.130415	500.862362
565.449891	526.432137	547.707751
565.799385	522.872211	507.496770
566.148836	507.580711	550.944047
566.498243	521.982230	557.335733
566.847607	527.645748	533.872584
567.196927	509.441581	548.921362
567.546203	517.451415	568.339140
567.895435	554.587915	581.203418
568.244624	558.714193	591.883196
568.593768	558.552378	597.789436
568.942870	547.468063	577.967122
569.291927	573.843878	600.702103
569.640940	607.339544	608.711936
569.989910	603.698711	632.013270
570.338836	597.145211	587.352381
570.687718	571.416656	596.818547
571.036557	602.080563	624.812510
571.385351	585.494544	622.789825
571.734101	609.928581	628.534251
572.082808	581.934619	610.491899
572.431471	614.297581	630.961473
572.780089	659.443915	670.282473
573.128664	645.851470	643.825751
573.477195	639.459785	653.939177
573.825682	636.304396	662.191733
574.174125	641.482470	649.651084
574.522524	641.077933	656.770936
574.870879	688.085137	693.826529
575.219189	663.651100	696.577381
575.567456	687.680600	693.421992
575.915679	674.897230	678.454122
576.263858	693.425026	695.768307
576.611992	655.155822	686.868492
576.960083	636.547119	717.532399
577.308129	696.014063	707.338066
577.656131	752.163804	760.332418
578.004089	743.102174	727.969455
578.352003	680.722563	696.172844
578.699873	725.302544	727.888547
579.047698	708.311989	700.218214
579.395479	793.669304	771.254918
579.743217	792.779322	762.112381
580.090909	770.367970	788.973640
580.438558	751.031100	811.627714
580.786162	727.729767	784.200103
581.133722	726.839785	748.600844
581.481238	742.293100	798.520714
581.828709	780.400489	789.297270
582.176136	752.972878	800.462492
582.523519	715.674563	737.435622
582.870857	747.713896	761.222399
583.218151	717.859063	744.231844
583.565400	714.460952	766.076844
583.912605	690.188730	724.814066
584.259766	749.412952	752.484399
584.606882	712.761896	768.746788
584.953954	709.201970	748.681751
585.300981	719.234489	722.063214
585.647964	756.047359	779.992918
585.994902	688.975119	720.202344
586.341796	637.275285	672.143344
586.688646	628.051841	644.473010
587.035450	649.735026	667.855251
587.382210	598.035193	612.514584
587.728926	639.864322	681.285881
588.075597	625.948248	649.165640
588.422223	673.117267	682.014047
588.768805	552.807952	597.384899
589.115342	646.822359	632.175084
589.461835	592.048044	579.585270
589.808282	593.666193	606.931973
590.154685	579.831026	594.067696
590.501044	534.280156	535.652547
590.847357	552.969767	559.924770
591.193626	509.684304	531.445362
591.539851	521.658600	546.089603
591.886030	506.771637	533.387140
592.232165	496.334581	491.881640
592.578255	516.804156	506.768603
592.924300	551.917970	545.037807
593.270300	529.425711	533.710770
593.616255	445.605637	452.075196
593.962166	467.774267	457.738714
594.308032	478.939489	474.729270
594.653852	474.732304	441.152696
594.999628	464.618878	471.088436
595.345359	406.689174	396.896344
595.691045	382.497859	409.598807
596.036686	418.825285	400.051733
596.382283	436.220378	460.894103
596.727834	420.524341	428.935677
597.073340	386.219600	407.495214
597.418801	428.776896	430.877455
597.764217	414.618100	439.777270
598.109589	398.112989	381.766659
598.454915	362.513730	411.945122
598.800196	393.582174	371.653233
599.145432	375.458915	400.618084
599.490623	380.151544	375.941325
599.835768	328.937156	324.969659
600.180869	335.167026	359.355307
600.525925	335.005211	354.824492
600.870935	331.283470	364.695196
601.215900	327.076285	354.419955
601.560820	341.801433	357.737159
601.905695	317.529211	345.115603
602.250525	331.768915	316.878918
602.595309	330.798026	323.189696
602.940048	298.111433	322.542436
603.284742	275.052822	293.173047
603.629390	302.884970	273.188918
603.973994	304.826748	300.616529
604.318552	325.377230	321.895177
604.663064	279.340915	303.529196
605.007532	293.418804	284.111418
605.351954	310.571174	291.069455
605.696330	286.946211	295.600270
606.040661	253.693267	293.173047
606.384947	232.333711	232.735214
606.729188	220.763952	208.543899
607.073383	276.913693	279.014251
607.417532	212.673211	243.900436
607.761636	233.709137	239.450529
608.105695	238.320859	237.023307
608.449708	240.262637	257.654696
608.793676	144.144637	162.264862
609.137598	201.993433	207.977547
609.481474	177.397581	196.245973
609.825305	225.375674	235.728788
610.169091	173.999470	198.430473
610.512831	172.543137	188.721584
610.856525	189.129156	191.229714
611.200174	197.219896	207.573010
611.543777	225.294767	219.385492
611.887334	226.022933	224.725381
612.230846	203.692489	189.045214
612.574312	222.139378	219.870936
612.917733	187.430100	161.132159
613.261107	177.073952	168.737455
613.604436	217.608563	211.699288
613.947720	216.718581	207.411196
614.290957	191.313656	185.404381
614.634149	152.154470	175.371862
614.977295	175.536711	171.569214
615.320395	140.341989	154.578659
615.663450	178.530285	175.776399
616.006458	134.759378	130.791881
616.349421	162.348804	165.420251
616.692338	188.400989	164.044825
617.035209	169.145026	154.983196
617.378034	136.862970	129.254640
617.720813	185.164693	162.993029
618.063546	183.789267	175.452770
618.406234	178.125748	203.527640
618.748875	159.031600	168.899270
619.091471	161.458822	158.947659
619.434020	123.027804	150.128751
619.776524	133.060322	125.694714
620.118982	144.549174	136.212677
620.461393	184.355619	206.116677
620.803759	116.150674	143.737066
621.146078	133.303044	172.054659
621.488351	100.778267	108.946881
621.830579	144.387359	87.991862
622.172760	162.672433	145.112492
622.514895	131.199452	111.697733
622.856984	138.562026	155.468640
623.199027	106.846322	103.364270
623.541024	115.098878	78.363881
623.882974	91.554822	95.111714
624.224878	93.253878	138.558992
624.566737	58.868230	92.522677
624.908549	96.732896	81.357455
625.250314	71.004341	80.629288
625.592034	137.995674	139.853510
625.933707	108.707193	113.963140
626.275334	115.098878	107.975992
626.616914	51.424748	99.399807
626.958449	96.813804	79.011140
627.299937	97.056526	90.176362
627.641378	78.043285	61.211510
627.982774	90.179396	94.221733
628.324123	131.927619	107.814177
628.665425	77.638748	78.282973
629.006681	98.593767	90.742714
629.347891	47.864822	72.053103
629.689055	59.191859	72.943084
630.030171	100.535544	124.966547
630.371242	40.097711	50.208103
630.712266	50.453859	72.943084
631.053243	107.493581	117.846696
631.394174	77.881470	102.312473
631.735059	74.645174	58.784288
632.075897	82.412285	80.386566
632.416688	62.023619	65.337788
632.757433	100.211915	91.632696
633.098131	35.728711	48.509047
633.438783	94.143859	100.127973
633.779388	52.233822	58.217936
634.119946	89.451230	57.085233
634.460458	77.962378	65.742325
634.800923	26.343452	15.822455
635.141342	96.490174	79.172955
635.481713	73.755193	91.875418
635.822038	68.253489	73.509436
636.162317	39.288637	62.263307
636.502548	61.780896	49.075399
636.842733	72.865211	72.053103
637.182871	38.398656	36.858381
637.522963	60.162748	48.670862
637.863007	70.680711	40.013770
638.203005	64.612656	59.916992
638.542956	62.266341	80.143844
638.882860	51.991100	54.819825
639.222717	79.095081	68.574084
639.562528	31.764248	24.398640
639.902291	37.508674	19.706010
640.242008	-17.912900	-10.957897
640.581677	46.974841	47.619066
640.921300	21.408100	7.003547
641.260876	85.163137	95.758973
641.600405	22.136267	36.372936
641.939887	33.382396	53.687122
642.279322	47.703007	35.968399
642.618710	40.502248	50.612640
642.958050	26.100730	50.531733
643.297344	16.715470	20.757807
643.636591	57.897341	57.327955
643.975791	46.489396	45.191844
644.314944	-2.459585	3.281807
644.654049	72.460674	84.027399
644.993108	33.058767	36.858381
645.332119	57.411896	40.822844
645.671083	61.376359	77.069362
646.010000	20.922656	27.149492
646.348870	33.948748	43.088251
646.687693	-1.893233	4.090881
647.026468	74.806989	50.450825
647.365197	58.382785	72.376733
647.703878	35.971433	28.848547
648.042511	28.204322	28.120381
648.381098	-18.236530	-18.805916
648.719637	7.087489	9.430770
649.058129	32.330600	40.499214
649.396574	68.091674	44.463677
649.734971	50.453859	55.467084
650.073321	47.541193	53.039862
650.411624	-8.365826	15.579733
650.749879	49.402063	50.531733
651.088087	30.631544	30.304881
651.426248	76.020600	77.878436
651.764361	25.291656	6.032659
652.102427	27.718878	16.469714
652.440445	64.531748	65.418696
652.778416	41.554044	28.848547
653.116339	68.010767	61.858770
653.454215	48.754804	20.757807
653.792043	69.548007	66.794122
654.129824	26.424359	28.039473
654.467557	14.935507	21.890510
654.805243	24.239859	13.961584
655.142881	33.706026	23.185029
655.480472	-4.805900	0.207325
655.818015	56.926452	54.415288
656.155510	36.780507	30.628510
656.492958	44.952156	36.858381
656.830358	-3.996826	6.113566
657.167711	16.310933	48.509047
657.505015	17.605452	19.948733
657.842273	38.965007	47.133622
658.179482	28.447044	27.149492
658.516644	20.437211	39.771047
658.853758	9.514711	6.760825
659.190824	22.540804	22.214140
659.527842	32.330600	37.343825
659.864813	-5.372252	-12.737860
660.201736	47.379378	33.460270
660.538611	12.508285	-6.022545
660.875438	15.420952	20.434177
661.212218	16.796378	19.625103
661.548950	58.140063	38.395622
661.885633	19.951767	37.586547
662.222269	16.149119	15.822455
662.558857	-5.534067	-15.812341
662.895397	51.343841	11.938899
663.231889	30.712452	33.055733
663.568334	22.945341	-6.993434
663.904730	50.696581	44.059140
664.241078	44.385804	31.923029
664.577378	-24.709122	1.420936
664.913631	10.000156	-9.016119
665.249835	16.310933	23.508659
665.585991	-1.812326	6.599010
665.922099	-13.867530	28.282196
666.258159	33.706026	21.971418
666.594171	-6.828585	3.767251
666.930135	7.572933	33.460270
667.266051	10.971044	6.275381
667.601919	43.657637	57.408862
667.937738	51.424748	48.428140
668.273510	27.637970	49.641751
668.609233	-47.201381	-43.887212
668.944908	12.670100	-5.618008
669.280535	4.660267	11.129825
669.616114	39.369544	52.392603
669.951644	14.935507	10.968010
670.287126	45.761230	50.289010
670.622560	19.466322	15.498825
670.957946	-0.275085	2.553640
671.293283	20.356304	-10.796082
671.628572	21.165378	49.479936
671.963813	5.712063	15.337010
672.299006	-21.958270	-15.488712
672.634150	7.006581	-16.621416
672.969245	5.792970	-5.698916
673.304293	10.404693	-5.698916
673.639291	53.609248	71.244029
673.974242	-6.666770	-35.149212
674.309144	-31.019900	-13.870564
674.643998	-18.560159	-20.828601
674.978803	16.068211	4.333603
675.313560	49.887507	44.463677
675.648268	8.058378	13.799770
675.982928	29.013396	29.172177
676.317539	38.560470	-10.796082
676.652101	32.492415	43.573696
676.986615	-3.268659	-4.080767
677.321081	-14.110252	-9.339749
677.655498	3.203933	-10.957897
677.989866	43.981267	39.285603
678.324186	20.194489	21.566881
678.658457	30.388822	28.120381
678.992680	52.961989	58.460659
679.326854	25.534378	7.488992
679.660979	-4.886807	-15.165082
679.995055	-0.841437	5.385399
680.329083	15.825489	7.246270
680.663062	-3.187752	-31.670193
680.996993	-12.815733	-19.210453
681.330874	58.706415	49.156307
681.664707	27.718878	32.732103
681.998491	16.068211	18.411492
682.332227	29.903378	38.557436
682.665913	4.498452	8.540788
682.999551	-10.873956	-32.802897
683.333140	33.463304	21.000529
683.666680	51.991100	31.761214
684.000171	15.825489	21.809603
684.333613	40.987693	42.117362
684.667006	-9.903067	-8.287953
685.000351	29.094304	32.651196
685.333646	16.391841	24.803177
685.666893	-1.003252	31.923029
686.000091	-3.430474	10.078029
686.333239	32.977859	20.029640
686.666339	45.113970	33.864807
686.999390	27.152526	38.476529
687.332391	-0.679622	-27.220286
687.665344	-11.035770	0.530955
687.998247	0.453081	15.660640
688.331102	27.476156	0.450047
688.663907	2.475767	20.110547
688.996664	1.990322	-29.404786
689.329371	9.029267	-27.463008
689.662029	-44.126900	-45.424453
689.994638	31.116989	-6.103453
690.327198	37.346859	38.233807
690.659708	-15.081141	-20.262249
690.992170	-30.615363	-7.397971
691.324582	57.816433	32.974825
691.656945	13.317359	22.942307
691.989259	1.343063	-1.410823
692.321524	6.278415	7.165362
692.653739	-7.233122	-33.045619
692.985905	12.831915	52.797140
693.318022	-27.136344	-22.365841
693.650089	-8.851270	27.230399
693.982107	57.007359	56.923418
694.314076	-3.592289	9.188047
694.645996	-48.172270	-36.605545
694.977866	23.188063	17.278788
695.309686	-20.097400	-10.957897
695.641458	-23.495511	-2.219897
695.973180	10.404693	3.767251
696.304852	-29.482659	-16.945045
696.636475	18.738156	7.974436
696.968049	41.311322	27.392214
697.299573	37.670489	16.226992
697.631047	10.323785	16.550622
697.962472	-17.508363	-38.223693
698.293848	14.045526	-0.601749
698.625174	-33.932567	-9.016119
698.956451	22.459896	7.569899
699.287678	-33.528030	3.767251
699.618855	44.628526	59.107918
699.949983	-14.595696	26.583140
700.281061	-21.796456	16.469714
700.612089	13.074637	1.097307
700.943068	-22.120085	7.408084
701.273998	-12.411196	-4.485304
701.604877	-8.204011	7.246270
701.935707	-13.786622	9.188047
702.266487	37.508674	7.569899
702.597218	36.618693	56.195251
702.927899	29.984285	20.676899
703.258530	37.589581	31.194862
703.589111	-15.323863	-23.903082
703.919642	-18.317437	-34.421045
704.250124	11.132859	25.854973
704.580556	41.311322	12.343436
704.910938	-0.113270	2.472733
705.241270	4.498452	20.191455
705.571553	11.861026	16.146084
705.901785	-10.954863	-14.436916
706.231968	34.838730	22.861399
706.562101	-5.534067	-17.996841
706.892184	-26.893622	-34.259230
707.222216	2.233044	12.343436
707.552199	10.647415	22.456862
707.882132	-32.557141	-34.825582
708.212016	-1.407789	-35.715564
708.541849	9.676526	19.544196
708.871632	23.754415	4.980862
709.201365	-2.945030	-4.728027
709.531048	22.136267	33.945714
709.860681	-50.680400	-30.618397
710.190264	19.142693	38.476529
710.519796	-6.181326	35.968399
710.849279	31.359711	4.090881
711.178712	25.210748	-7.155249
711.508094	11.294674	19.948733
711.837427	34.596007	35.240233
712.166709	-26.408178	-20.181341
712.495941	22.217174	16.307899
712.825123	-4.644085	14.204307
713.154255	16.715470	14.932473
713.483336	-23.333696	-51.816138
713.812367	8.624730	22.133233
714.141348	16.715470	24.641362
714.470279	23.349878	28.363103
714.799159	-24.547307	-15.650527
715.127990	25.372563	17.278788
715.456769	16.715470	13.718862
715.785499	-6.585863	0.854584
716.114178	27.395248	12.505251
716.442807	-20.097400	-1.734453
716.771385	-6.181326	-14.517823
717.099914	37.023230	18.249677
717.428391	-35.065270	-15.974156
717.756819	-4.967715	-30.537490
718.085195	7.168396	11.210733
718.413522	-21.068289	-23.822175
718.741798	16.230026	18.087862
719.070023	0.210359	-42.835416
719.398198	17.524544	24.964992
719.726323	7.653841	-2.381712
720.054397	-8.204011	8.217159
720.382420	10.323785	0.530955
720.710393	-14.433881	0.045510
721.038316	33.625119	50.531733
721.366188	47.460285	36.453844
721.694009	23.835322	24.236825
722.021779	13.074637	16.146084
722.349499	-3.430474	-9.339749
722.677169	38.317748	20.272362
723.004787	-5.938604	-12.333323
723.332355	8.058378	2.149103
723.659873	-5.453159	-4.808934
723.987339	-24.466400	-33.045619
724.314755	44.304896	34.026622
724.642120	-19.126511	-9.501564
724.969435	5.792970	-0.116304
725.296699	1.585785	2.715455
725.623911	-24.304585	-25.844860
725.951074	-2.783215	8.055344
726.278185	-27.379067	-17.268675
726.605245	21.650822	66.227770
726.932255	38.317748	38.719251
727.259214	-65.162826	-75.198378
727.586122	14.450063	3.200899
727.912979	-0.436900	-16.540508
728.239785	-21.796456	-17.511397
728.566540	41.796767	26.664047
728.893245	20.194489	11.615270
729.219898	24.968026	41.389196
729.546501	26.181637	43.330973
729.873052	8.382007	-24.469434
730.199552	-5.534067	-0.278119
730.526002	-7.718567	8.217159
730.852400	-15.890215	-34.663767
731.178748	41.715859	25.854973
731.505044	17.200915	28.039473
731.831290	-11.116678	-39.841841
732.157484	16.715470	33.379362
732.483627	5.631156	1.663659
732.809719	-6.504956	-6.588897
733.135760	-1.731419	-19.291360
733.461750	9.595619	21.890510
733.787688	-20.987381	2.715455
734.113576	6.602044	-12.656953
734.439412	7.087489	18.896936
734.765197	-11.763937	-4.566212
735.090931	29.822470	36.049307
735.416614	41.715859	27.796751
735.742245	-21.149196	7.893529
736.067825	-15.323863	-10.553360
736.393354	-10.388511	-13.627841
736.718832	14.045526	-30.213860
737.044258	26.424359	32.893918
737.369633	0.857619	14.608844
737.694957	38.965007	32.327566
738.020229	-23.010067	-22.851286
738.345450	32.492415	16.388807
738.670619	-14.919326	-0.925378
738.995738	-4.644085	16.874251
739.320804	-21.877363	-37.495527
739.645820	30.307915	29.981251
739.970784	7.411119	-14.032378
740.295696	-36.117067	-25.763953
740.620557	48.026637	31.923029
740.945366	12.831915	11.048918
741.270124	11.294674	-3.109878
741.594831	21.327193	18.330584
741.919486	-63.787400	-65.570397
742.244089	11.213767	10.401659
742.568641	-18.560159	-11.847878
742.893141	35.081452	37.424733
743.217590	20.518119	28.686733
743.541987	-35.307993	-19.372267
743.866332	9.271989	-7.074341
744.190626	-11.278493	-7.236156
744.514868	12.346470	-3.271693
744.839058	-24.304585	-20.019527
745.163197	-17.993807	-0.359027
745.487284	5.873878	1.906381
745.811320	-11.683030	1.582751
746.135303	9.757433	14.042492
746.459235	11.213767	-2.462619
746.783115	5.469341	28.686733
747.106944	-22.929159	-12.576045
747.430720	-45.745048	-54.566990
747.754445	25.858007	23.832288
748.078118	-33.689844	-4.404397
748.401739	21.569915	27.796751
748.725308	-22.686437	-56.266045
749.048825	31.926063	1.501844
749.372291	-6.747678	-5.618008
749.695705	2.071230	2.472733
750.019066	18.495433	13.071603
750.342376	-17.831993	-42.188156
750.665634	-18.074715	0.530955
750.988840	9.352896	-17.430490
751.311994	21.489007	-3.595323
751.635096	-5.857696	-40.165471
751.958146	-6.747678	-7.802508
752.281143	4.093915	10.806196
752.604089	-14.191159	-12.576045
752.926983	-36.440696	-20.990416
753.249825	-32.314419	-15.650527
753.572615	-25.680011	-32.802897
753.895352	20.356304	20.757807
754.218038	-34.418011	-27.220286
754.540671	35.485989	40.013770
754.863252	18.495433	-26.492119
755.185781	-5.614974	-0.359027
755.508258	-19.611956	-0.278119
755.830683	-10.064881	-3.109878
756.153056	-17.346548	-27.139378
756.475376	-45.178696	-21.475860
756.797644	7.006581	25.612251
757.119860	36.780507	16.793344
757.442023	-52.136733	-42.754508
757.764135	8.867452	24.803177
758.086194	-2.783215	12.424344
758.408201	33.463304	40.903751
758.730155	11.456489	16.469714
759.052057	-9.983974	20.029640
759.373907	18.657248	14.447029
759.695704	14.369156	32.003936
760.017449	60.567285	42.279177
760.339142	-29.887196	-21.718582
760.660782	-16.213844	10.158936
760.982370	-40.162437	-45.343545
761.303905	-1.974141	-11.766971
761.625388	53.771063	39.123788
761.946818	-34.903456	-37.171897
762.268196	-1.245974	-2.058082
762.589521	-8.123104	-15.245990
762.910794	-0.194178	-4.647119
763.232015	14.207341	22.375955
763.553182	28.204322	18.168770
763.874298	-21.391919	-41.864527
764.195360	-11.197585	-28.029360
764.516370	-15.647493	-37.819156
764.837328	-8.932178	-6.103453
765.158233	6.278415	18.573307
765.479085	-5.695881	-1.168101
765.799885	-23.171881	-2.138990
766.120631	2.475767	-24.307619
766.441326	2.799396	16.793344
766.761967	13.640989	21.324159
767.082556	5.469341	-16.216878
767.403092	-16.294752	-3.514416
767.723575	-19.207419	-15.893249
768.044006	-35.712530	-22.446749
768.364384	-13.058456	-18.482286
768.684709	24.806211	22.537770
769.004981	29.579748	22.214140
769.325200	24.239859	12.262529
769.645367	-35.146178	-54.405175
769.965481	-20.825567	-35.230119
770.285541	-1.488696	3.281807
770.605549	-1.245974	7.893529
770.925504	-18.317437	5.870844
771.245407	50.696581	28.282196
771.565256	19.709044	0.450047
771.885052	-6.424048	-23.983990
772.204795	17.524544	9.916214
772.524486	20.113581	17.602418
772.844123	32.654230	27.958566
773.163708	-34.660733	-37.171897
773.483239	-18.802881	-42.188156
773.802717	-26.812715	-63.304990
774.122142	-18.964696	-14.194193
774.441515	9.110174	9.754399
774.760834	-18.074715	-30.294767
775.080100	-23.495511	-45.667175
775.399313	12.751007	6.356288
775.718473	16.634563	-9.420656
776.037579	-12.896641	-20.990416
776.356633	19.385415	-4.485304
776.675633	-41.052419	-32.398360
776.994580	15.016415	4.252696
777.313474	-16.456567	-1.977175
777.632315	17.039100	22.780492
777.951103	17.443637	-2.300804
778.269837	-34.094381	-11.119712
778.588518	14.450063	6.113566
778.907146	57.169174	6.841733
779.225720	0.291267	35.402047
779.544242	8.624730	8.540788
779.862709	36.780507	40.337399
780.181124	-10.954863	16.874251
780.499485	12.265563	17.278788
780.817793	-7.233122	-0.763564
781.136047	-26.003641	-5.941638
781.454248	35.081452	10.239844
781.772396	29.741563	20.191455
782.090490	15.825489	13.557047
782.408531	-7.071307	-26.573027
782.726518	12.022841	24.075010
783.044452	14.854600	3.119992
783.362333	8.624730	11.453455
783.680159	1.100341	10.239844
783.997933	26.424359	28.524918
784.315653	-14.514789	-24.550341
784.633319	-9.255807	-23.660360
784.950932	-15.081141	-5.456193
785.268491	-33.123493	-53.838823
785.585996	74.321544	24.479547
785.903448	38.884100	23.265936
786.220847	33.463304	12.505251
786.538191	-0.032363	-25.359416
786.855482	-29.482659	-6.265267
787.172720	14.369156	0.450047
787.489903	16.553656	3.362714
787.807033	24.563489	31.761214
788.124110	-7.880381	-41.217267
788.441132	-46.554122	-44.939008
788.758101	-15.162048	-33.692878
789.075016	29.337026	33.622084
789.391877	29.175211	5.547214
789.708685	-38.867919	-18.805916
790.025438	39.450452	29.172177
790.342138	-14.514789	-11.443341
790.658784	-29.563567	-30.618397
790.975376	-29.159030	11.777084
791.291915	-1.569604	10.968010
791.608399	5.064804	28.767640
791.924830	-34.094381	-44.615378
792.241206	20.194489	9.188047
792.557529	-1.245974	-19.776804
792.873798	17.200915	2.553640
793.190012	-14.110252	-10.553360
793.506173	5.550248	14.932473
793.822280	8.786544	-10.472453
794.138333	42.767656	12.343436
794.454332	-15.485678	-30.618397
794.770277	-20.259215	-27.867545
795.086167	29.094304	28.282196
795.402004	24.725304	-15.893249
795.717787	-23.819141	-1.087193
796.033515	-3.996826	-20.343156
796.349190	-15.323863	-36.039193
796.664810	0.048544	27.392214
796.980376	55.712841	42.521899
797.295888	-5.372252	-15.650527
797.611346	-24.304585	-44.049027
797.926750	0.695804	-12.980582
798.242099	61.214544	14.527936
798.557394	67.039878	64.043270
798.872635	19.789952	-14.760545
799.187822	4.093915	-8.126138
799.502955	5.631156	-19.695897
799.818033	-9.174900	-17.025953
800.133057	19.709044	13.071603
800.448027	-6.504956	0.207325
800.762942	-19.692863	-33.611971
801.077803	-9.417622	-5.132564
801.392610	21.084470	41.389196
801.707362	18.576341	21.405066
802.022060	-9.255807	30.952140
802.336703	-4.077733	-1.006286
802.651292	11.780119	20.434177
802.965827	10.647415	7.650807
803.280307	31.926063	27.473122
803.594733	-22.443715	-19.614990
803.909104	36.456878	39.528325
804.223421	-6.504956	2.149103
804.537684	11.699211	22.295047
804.851891	-6.504956	-12.171508
805.166045	-23.414604	-11.605156
805.480143	-0.841437	-6.993434
805.794188	25.210748	13.233418
806.108177	10.809230	14.123399
806.422112	-12.977548	-9.420656
806.735993	5.307526	4.495418
807.049818	-8.204011	-3.918953
807.363590	-6.262233	2.877270
807.677306	-15.242956	-18.482286
807.990968	-14.352974	-11.524249
808.304575	13.802804	-34.340138
808.618128	4.498452	5.142677
808.931625	15.663674	2.715455
809.245068	30.469730	10.239844
809.558457	-11.602122	7.003547
809.871790	7.492026	-1.572638
810.185069	-5.534067	39.285603
810.498293	-16.132937	8.540788
810.811462	-15.971122	-15.569619
811.124576	26.990711	24.722270
811.437636	1.019433	17.683325
811.750640	-15.000233	0.207325
812.063590	-16.699289	-13.627841
812.376485	-39.272456	-14.113286
812.689325	-4.482270	-22.770378
813.002110	1.019433	-9.744286
813.314840	-36.440696	-38.466416
813.627516	7.330211	-1.977175
813.940136	-17.993807	-35.553749
814.252701	-5.776789	8.702603
814.565212	16.715470	4.495418
814.877667	12.184656	12.100714
815.190067	-41.133326	-21.556767
815.502413	-6.909493	-8.449767
815.814703	-2.297770	1.744566
816.126938	-9.255807	-7.640693
816.439118	-22.039178	-15.569619
816.751243	3.527563	-11.362434
817.063313	23.349878	-4.161675
817.375328	-14.272067	-15.326897
817.687287	-16.456567	-26.492119
817.999192	8.705637	8.136251
818.311041	-15.404770	-32.479267
818.622835	30.146100	15.741547
818.934574	14.611878	-2.219897
819.246258	21.084470	33.622084
819.557887	2.394859	15.660640
819.869460	2.394859	8.621696
820.180978	4.498452	1.016399
820.492441	-9.255807	-12.737860
820.803848	-14.595696	22.456862
821.115200	-31.667159	-26.411212
821.426497	3.365748	-2.300804
821.737739	-16.618381	-16.945045
822.048925	25.534378	15.013381
822.360056	4.174822	19.867825
822.671131	-28.916307	-33.126527
822.982151	22.136267	-8.045230
823.293116	16.068211	2.391825
823.604025	3.689378	-9.016119
823.914879	14.288248	28.524918
824.225677	-24.790030	-50.602527
824.536420	21.327193	30.952140
824.847107	3.042119	-6.750712
825.157739	34.838730	39.366510
825.468315	18.657248	28.282196
825.778836	-29.239937	-45.100823
826.089301	-44.450530	-28.757527
826.399711	38.803193	30.223973
826.710065	-6.990400	13.314325
827.020363	0.048544	4.090881
827.330606	55.955563	42.279177
827.640794	13.479174	38.881066
827.950925	-23.495511	-31.832008
828.261001	42.363119	40.822844
828.571022	7.330211	-1.249008
828.880986	27.880693	0.126418
829.190895	14.369156	-1.977175
829.500749	39.612267	18.896936
829.810546	7.411119	-2.624434
830.120288	29.579748	50.612640
830.429974	45.599415	76.098473
830.739604	27.152526	12.505251
831.049179	-4.320456	-9.744286
831.358697	21.812637	0.854584
831.668160	-32.799863	-41.621804
831.977567	-11.116678	-0.763564
832.286918	-20.663752	-23.417638
832.596213	26.262544	23.508659
832.905453	-4.724993	26.259510
833.214636	9.271989	8.459881
833.523764	14.773693	8.621696
833.832836	-6.262233	13.799770
834.141851	6.521137	42.845529
834.450811	-13.624807	-50.117082
834.759715	-0.355993	-8.692490
835.068563	46.246674	59.755177
835.377355	13.721896	8.055344
835.686091	3.851193	-25.844860
835.994770	-20.340122	-9.744286
836.303394	-0.355993	4.414510
836.611962	24.725304	20.515084
836.920473	43.253100	15.741547
837.228929	30.388822	5.304492
837.537328	-20.582844	6.275381
837.845672	30.065193	12.747973
838.153959	-22.686437	-36.848267
838.462190	29.094304	11.777084
838.770365	7.572933	-0.035397
839.078483	-11.763937	-1.653545
839.386546	17.281822	25.935881
839.694552	-6.343141	-15.407804
840.002502	-19.692863	-24.145804
840.310396	25.129841	16.065177
840.618233	-14.919326	3.929066
840.926015	9.676526	-20.990416
841.233739	16.796378	6.032659
841.541408	-14.191159	-6.507990
841.849020	3.689378	3.362714
842.156576	31.278804	44.787307
842.464076	1.343063	-29.566601
842.771519	54.094693	53.768029
843.078906	51.991100	45.353659
843.386237	41.958581	2.068196
843.693511	8.786544	4.576325
844.000729	32.087878	35.644770
844.307890	-39.515178	-8.773397
844.614995	12.831915	4.738140
844.922043	34.191470	57.408862
845.229035	66.797156	58.703381
845.535970	-27.621789	-33.531064
845.842849	6.197507	1.501844
846.149671	-20.582844	-36.686453
846.456437	12.508285	-6.022545
846.763146	-7.799474	-8.368860
847.069799	2.394859	17.602418
847.376395	-3.268659	-2.867156
847.682934	15.259137	-1.572638
847.989417	63.156322	31.275770
848.295843	1.262156	-1.491730
848.602213	-0.517807	3.039084
848.908526	13.236452	-14.275101
849.214782	8.867452	1.259122
849.520981	-40.000622	-38.870953
849.827124	-41.052419	-33.854693
850.133210	-28.430863	-11.766971
850.439239	-30.049011	-21.880397
850.745212	-37.816122	-34.744675
851.051128	-39.110641	-46.718971
851.356987	39.774081	31.194862
851.662789	-9.093993	-3.838045
851.968534	-13.705715	-5.779823
852.274223	50.049322	12.586159
852.579854	15.906396	-8.207045
852.885429	18.657248	21.728696
853.190947	-13.058456	-23.336730
853.496408	-17.589270	2.715455
853.801812	-9.498530	-10.310638
854.107160	12.670100	-8.773397
854.412450	-11.278493	-3.838045
854.717683	-11.116678	-26.734841
855.022859	-36.117067	-57.075119
855.327979	1.423970	-14.194193
855.633041	-2.864122	7.974436
855.938046	-9.093993	-18.886823
856.242995	42.444026	12.262529
856.547886	47.783915	34.835696
856.852720	16.149119	49.560844
857.157497	-16.294752	-6.912527
857.462217	-11.844844	0.207325
857.766880	7.896563	7.084455
858.071486	-20.501937	-21.071323
858.376035	-20.987381	-23.013101
858.680526	1.747600	-11.686064
858.984961	-37.654307	-44.534471
859.289338	-30.777178	-28.676619
859.593658	15.501859	30.466696
859.897921	-2.135956	19.139659
860.202126	-1.084159	25.045899
860.506275	-11.925752	-16.621416
860.810366	-28.026326	-9.663378
861.114399	8.462915	17.845140
861.418376	-6.828585	-7.397971
861.722295	-21.796456	1.178214
862.026157	28.123415	25.612251
862.329961	-3.106844	-10.229730
862.633709	9.191081	3.281807
862.937398	-3.996826	-13.304212
863.241031	-4.239548	-7.964323
863.544606	-55.373030	-40.165471
863.848124	3.446656	10.644381
864.151584	18.819063	37.667455
864.454987	6.197507	4.414510
864.758332	-17.589270	-1.896267
865.061620	-18.398344	5.789936
865.364850	6.763859	-35.553749
865.668023	-22.443715	-14.032378
865.971138	-6.424048	12.667066
866.274196	46.813026	47.942696
866.577196	-1.245974	4.252696
866.880139	-28.107233	-35.958286
867.183024	-6.747678	2.877270
867.485852	23.349878	45.596381
867.788622	22.378989	16.955159
868.091334	15.582767	15.498825
868.393989	-14.595696	-3.028971
868.696586	-17.993807	0.611862
868.999125	-34.579826	-25.197601
869.301607	-25.518196	-30.456582
869.604031	-3.187752	2.310918
869.906397	21.650822	30.547603
870.208706	23.430785	11.696177
870.510957	21.408100	17.683325
870.813150	22.621711	-3.433508
871.115285	-29.725381	5.628122
871.417363	-23.252789	-17.025953
871.719382	5.631156	-14.841453
872.021344	-14.595696	-47.689860
872.323248	1.262156	-0.278119
872.625094	-28.430863	-24.631249
872.926883	-10.145789	-27.463008
873.228613	14.450063	15.579733
873.530286	7.168396	-17.915934
873.831900	8.948359	-16.864138
874.133457	-25.518196	-31.184749
874.434956	31.521526	14.689751
874.736397	8.867452	0.773677
875.037780	6.359322	-8.045230
875.339105	19.466322	25.450436
875.640371	9.110174	10.725288
875.941580	8.220193	19.544196
876.242731	-30.291733	-16.540508
876.543824	-0.517807	-7.883416
876.844859	-36.359789	-55.618786
877.145835	16.391841	-16.216878
877.446754	-14.352974	7.165362
877.747614	8.220193	-23.903082
878.048417	30.550637	-10.553360
878.349161	29.822470	2.310918
878.649847	-31.667159	-4.080767
878.950475	0.372174	14.123399
879.251045	23.916230	24.560455
879.551556	19.061785	18.977844
879.852010	18.899970	10.806196
880.152405	10.647415	-15.650527
880.452741	38.803193	40.418307
880.753020	28.689767	19.139659
881.053240	15.825489	-0.763564
881.353402	6.197507	22.861399
881.653506	26.100730	27.715844
881.953552	-13.786622	-0.520841
882.253539	23.916230	30.871233
882.553467	-5.453159	26.502233
882.853338	36.780507	30.385788
883.153150	-20.178307	-22.689471
883.452903	-24.870937	-34.906490
883.752598	-34.903456	-29.890230
884.052235	8.220193	-2.786249
884.351814	3.446656	2.877270
884.651333	16.149119	-5.051656
884.950795	-34.094381	-42.188156
885.250198	-5.210437	18.249677
885.549542	7.006581	0.126418
885.848828	-31.262622	-1.977175
886.148055	-4.967715	-2.381712
886.447224	4.093915	-10.067916
886.746335	-15.809307	-4.970749
887.045386	0.129452	-8.692490
887.344379	-3.025937	-33.450156
887.643314	-17.912900	-12.414230
887.942190	12.831915	23.670473
888.241007	-34.822548	1.259122
888.539766	16.391841	21.405066
888.838465	1.181248	23.427751
889.137107	-30.210826	-22.770378
889.435689	6.359322	-0.763564
889.734213	14.450063	22.618677
890.032678	2.152137	-6.669804
890.331085	-11.035770	-37.819156
