wavelength	0.005525

178.106480	-4.692630
178.493382	11.527283
178.880256	11.527283
179.267103	-8.780476
179.653922	-9.751365
180.040713	-11.207699
180.427476	32.077764
180.814211	3.436542
181.200918	24.796098
181.587598	23.663394
181.974250	-40.657995
182.360873	10.880024
182.747469	31.996857
183.134037	-31.272736
183.520577	20.265283
183.907089	26.009709
184.293573	-4.816013
184.680029	4.973783
185.066457	5.782857
185.452857	-8.214125
185.839229	-1.417902
186.225573	-30.787291
186.611889	8.533709
186.998176	-22.453828
187.384436	-29.978217
187.770668	1.575672
188.156871	24.877005
188.543046	11.122746
188.929193	-8.618662
189.315312	12.093635
189.701403	18.080783
190.087466	-26.256476
190.473500	41.463024
190.859506	-31.030013
191.245484	28.922375
191.631434	-12.340402
192.017355	-24.476513
192.403248	-6.838699
192.789113	-11.612236
193.174949	-3.036050
193.560757	6.672838
193.946537	5.863764
194.332288	12.012727
194.718011	-33.942680
195.103705	-27.065550
195.489371	-38.311680
195.875009	-33.699958
196.260618	28.436931
196.646199	-14.363087
197.031751	4.731061
197.417275	-18.408458
197.802771	-22.049291
198.188237	-11.854958
198.573676	-12.502217
198.959085	11.122746
199.344466	-10.722254
199.729819	-8.537754
200.115143	-24.557421
200.500438	16.381727
200.885705	11.689098
201.270943	2.303838
201.656152	20.346190
202.041333	-6.595976
202.426485	-26.094662
202.811608	-1.256087
203.196703	-9.427736
203.581769	30.540524
203.966806	-33.457236
204.351814	-2.065162
204.736794	53.760950
205.121745	27.466042
205.506667	4.731061
205.891560	0.928413
206.276424	7.805542
206.661260	-3.036050
207.046066	-3.440587
207.430844	-25.366495
207.815593	22.530690
208.200313	6.672838
208.585003	-72.778236
208.969665	5.054690
209.354299	-12.502217
209.738903	-3.683310
210.123478	12.012727
210.508024	-2.226976
210.892541	-19.945699
211.277029	1.171135
211.661488	14.844487
212.045918	18.728042
212.430318	12.983616
212.814690	24.229746
213.199033	-41.386162
213.583346	39.116709
213.967631	5.782857
214.351886	-11.369513
214.736112	28.032394
215.120309	17.433524
215.504476	-21.644754
215.888615	52.304616
216.272724	8.210079
216.656804	-16.223958
217.040854	33.857727
217.424876	5.216505
217.808868	2.465653
218.192830	9.504598
218.576764	33.615005
218.960668	12.174542
219.344543	29.084190
219.728388	21.964338
220.112204	10.880024
220.495991	13.145431
220.879748	-18.408458
221.263476	-28.926421
221.647174	-6.029625
222.030843	4.164709
222.414482	15.896283
222.798092	22.045246
223.181672	17.109894
223.565223	22.368875
223.948744	10.232764
224.332236	37.094024
224.715698	-24.961958
225.099131	27.466042
225.482534	-37.664421
225.865907	46.802913
226.249251	29.003283
226.632565	24.229746
227.015850	16.381727
227.399104	-49.800532
227.782329	26.009709
228.165525	39.035801
228.548691	26.737875
228.931827	-29.169143
229.314933	-45.188810
229.698009	-34.994476
230.081056	-44.865180
230.464073	54.084579
230.847060	-31.596365
231.230017	25.362450
231.612944	-9.832273
231.995842	11.850913
232.378709	-17.113939
232.761547	-35.479921
233.144355	8.776431
233.527133	8.533709
233.909881	-25.851939
234.292599	-24.638328
234.675287	10.637301
235.057945	-4.573291
235.440574	-0.527921
235.823172	-13.392199
236.205740	-20.997495
236.588278	-28.440976
236.970786	-7.566865
237.353264	8.210079
237.735712	-34.266310
238.118130	-9.832273
238.500517	-20.188421
238.882875	31.511413
239.265202	11.527283
239.647499	-38.635310
240.029767	-3.764217
240.412003	20.103468
240.794210	22.449783
241.176387	13.226338
241.558533	9.990042
241.940649	2.465653
242.322734	3.355635
242.704790	17.109894
243.086815	13.064524
243.468810	13.630875
243.850774	-0.366106
244.232709	18.728042
244.614612	2.222931
244.996486	28.032394
245.378329	2.465653
245.760142	30.297801
246.141924	5.378320
246.523676	-25.609217
246.905397	-25.042865
247.287088	-5.382365
247.668748	5.054690
248.050378	-7.243236
248.431978	-8.942291
248.813547	-7.809587
249.195085	36.284950
249.576593	-11.774050
249.958070	-11.045884
250.339517	19.132579
250.720933	58.129950
251.102318	5.135598
251.483673	-9.427736
251.864997	-4.330569
252.246291	-0.851550
252.627554	9.100061
253.008786	-1.903347
253.389987	-2.388791
253.771158	-28.036439
254.152298	-28.926421
254.533408	-42.761587
254.914486	-2.307884
255.295534	-0.285199
255.676551	3.112913
256.057537	8.048264
256.438492	13.954505
256.819417	47.935616
257.200310	8.048264
257.581173	5.944672
257.962005	34.666801
258.342806	-21.402032
258.723576	0.604783
259.104315	-12.097680
259.485023	-38.230773
259.865700	-8.214125
260.246347	40.330320
260.626962	12.417264
261.007546	54.570024
261.388099	1.252042
261.768621	26.818783
262.149112	9.585505
262.529573	11.446375
262.910002	7.401005
263.290399	23.744301
263.670766	25.038820
264.051102	-24.152884
264.431406	-14.282180
264.811680	-0.123384
265.191922	3.760172
265.572133	-28.683699
265.952313	-10.884069
266.332461	-38.149865
266.712578	2.061116
267.092665	46.479283
267.472719	-27.793717
267.852743	13.630875
268.232735	-39.363476
268.612696	-34.589939
268.992626	-16.790310
269.372524	26.656968
269.752391	67.677024
270.132226	58.939024
270.512030	-7.324143
270.891803	25.443357
271.271545	-15.657606
271.651255	-24.314699
272.030933	-11.288606
272.410580	24.067931
272.790196	23.258857
273.169780	11.041838
273.549332	37.498561
273.928853	23.744301
274.308343	35.556783
274.687800	1.818394
275.067227	16.624450
275.446622	3.112913
275.825985	-11.693143
276.205316	-13.715828
276.584616	-2.388791
276.963885	-5.625087
277.343121	-19.622069
277.722326	-0.527921
278.101499	-4.006939
278.480641	66.382505
278.859751	46.155653
279.238829	-15.091254
279.617875	42.433913
279.996890	-0.689736
280.375873	-13.958550
280.754824	-20.754773
281.133743	-29.978217
281.512631	-73.749125
281.891486	-21.887476
282.270310	28.517838
282.649102	-30.868199
283.027862	22.449783
283.406590	-35.722643
283.785286	10.151857
284.163950	-46.968773
284.542582	7.401005
284.921183	10.799116
285.299751	18.808950
285.678287	5.216505
286.056792	16.381727
286.435264	23.501579
286.813704	-26.499199
287.192112	-35.803550
287.570489	-2.307884
287.948833	1.252042
288.327145	13.469061
288.705425	30.055079
289.083672	23.501579
289.461888	-30.301847
289.840071	-24.557421
290.218223	-27.146458
290.596342	-15.819421
290.974429	-7.485958
291.352483	-9.670458
291.730506	-12.664032
292.108496	-3.359680
292.486454	11.041838
292.864379	6.349209
293.242273	-44.541550
293.620134	18.728042
293.997963	-31.596365
294.375759	19.375301
294.753523	-6.434162
295.131255	-17.842106
295.508954	-34.104495
295.886621	21.236172
296.264255	10.394579
296.641857	-11.612236
297.019427	39.440338
297.396964	24.148838
297.774469	-3.359680
298.151941	16.462635
298.529380	-40.091643
298.906788	-11.045884
299.284162	3.032005
299.661504	4.164709
300.038814	-1.579717
300.416090	-19.864791
300.793335	-44.460643
301.170546	-4.330569
301.547726	37.013116
301.924872	-33.780865
302.301986	-33.376328
302.679067	-5.625087
303.056115	2.384746
303.433131	5.701950
303.810114	-24.881050
304.187064	-10.803162
304.563982	30.864153
304.940866	-22.777458
305.317718	-1.094273
305.694537	-6.272347
306.071324	-28.117347
306.448077	6.672838
306.824798	0.281153
307.201486	8.048264
307.578141	-1.256087
307.954763	30.297801
308.331352	-1.579717
308.707908	42.838450
309.084432	46.317468
309.460922	-3.278773
309.837379	-18.651180
310.213804	-22.534736
310.590195	17.757153
310.966554	-15.900328
311.342879	-22.534736
311.719172	-7.324143
312.095431	29.326913
312.471657	2.627468
312.847851	-24.476513
313.224011	-47.211495
313.600138	-10.155902
313.976232	-29.250050
314.352292	-26.903736
314.728320	3.112913
315.104314	34.424079
315.480275	16.058098
315.856203	-22.049291
316.232098	42.272098
316.607960	-16.304865
316.983788	-6.838699
317.359583	-5.220550
317.735345	-14.120365
318.111073	-44.137013
318.486769	-22.615643
318.862430	19.537116
319.238059	-7.971402
319.613654	-9.832273
319.989216	-22.534736
320.364744	-30.059125
320.740239	32.805931
321.115701	-22.777458
321.491129	58.049042
321.866524	-48.101476
322.241885	-27.065550
322.617213	-15.819421
322.992507	8.048264
323.367768	15.896283
323.742995	0.928413
324.118189	3.193820
324.493349	-5.705995
324.868475	31.592320
325.243568	-9.508643
325.618628	2.789283
325.993654	-24.395606
326.368646	11.041838
326.743604	8.129172
327.118529	-0.366106
327.493421	35.799505
327.868278	-11.612236
328.243102	4.326524
328.617892	-45.269717
328.992648	-15.253069
329.367371	49.472857
329.742060	-11.854958
330.116715	68.081561
330.491336	31.187783
330.865924	15.734468
331.240477	-2.226976
331.614997	-47.939662
331.989483	-24.395606
332.363935	-13.230384
332.738354	18.566227
333.112738	-38.716217
333.487088	11.446375
333.861405	22.287968
334.235687	-32.971791
334.609936	30.459616
334.984150	-1.822439
335.358331	-5.139643
335.732478	1.009320
336.106590	-1.579717
336.480669	-0.527921
336.854713	3.355635
337.228724	-15.657606
337.602700	-27.631902
337.976642	-41.305254
338.350550	-22.939273
338.724424	33.776820
339.098264	38.712172
339.472070	-2.550606
339.845842	10.556394
340.219579	-1.579717
340.593282	75.039598
340.966951	-20.350236
341.340586	11.041838
341.714186	44.618412
342.087752	-27.308273
342.461284	20.750727
342.834782	-39.606199
343.208245	4.731061
343.581674	34.504987
343.955069	14.116320
344.328429	-4.411476
344.701755	10.394579
345.075047	-2.874236
345.448304	-40.091643
345.821526	20.669820
346.194715	29.488727
346.567869	17.352616
346.940988	21.317079
347.314073	34.504987
347.687123	41.543931
348.060139	-6.029625
348.433121	-10.155902
348.806067	-60.884847
349.178980	-23.829254
349.551858	-18.327550
349.924701	-22.939273
350.297509	36.204042
350.670283	-21.159310
351.043023	7.643727
351.415727	-73.182773
351.788397	-19.864791
352.161033	20.508005
352.533633	-0.689736
352.906199	33.048653
353.278731	42.191190
353.651227	0.038431
354.023689	-20.350236
354.396116	0.362061
354.768508	12.659987
355.140866	14.278135
355.513188	3.760172
355.885476	11.284561
356.257729	-13.554013
356.629947	-2.955143
357.002130	-12.664032
357.374279	-25.204680
357.746392	-38.068958
358.118471	6.834653
358.490514	9.423690
358.862523	-7.809587
359.234497	-29.978217
359.606436	36.932209
359.978339	3.436542
360.350208	-37.017162
360.722042	8.129172
361.093841	2.870190
361.465604	-17.437569
361.837333	1.818394
362.209026	-3.602402
362.580685	-13.715828
362.952308	-26.741921
363.323896	26.899690
363.695449	-0.689736
364.066967	-10.641347
364.438450	9.261875
364.809897	-30.140032
365.181310	-12.340402
365.552687	-5.301458
365.924028	10.556394
366.295335	-12.421310
366.666606	-43.408847
367.037842	-14.848532
367.409043	10.232764
367.780209	12.902709
368.151339	1.252042
368.522434	-16.143050
368.893493	-5.301458
369.264517	-25.204680
369.635506	-28.521884
370.006459	-9.994087
370.377377	10.880024
370.748260	19.213487
371.119107	-2.388791
371.489918	23.501579
371.860694	-26.418291
372.231435	72.936005
372.602140	10.313672
372.972809	-2.307884
373.343444	26.576061
373.714042	14.763579
374.084605	31.430505
374.455132	-5.301458
374.825624	-21.402032
375.196080	-21.402032
375.566501	25.119727
375.936885	9.828227
376.307235	4.569246
376.677548	-2.793328
377.047826	-3.116958
377.418068	8.452801
377.788275	16.705357
378.158445	-0.851550
378.528580	54.084579
378.898679	-1.256087
379.268743	6.753746
379.638770	-5.625087
380.008762	8.371894
380.378718	49.230135
380.748638	-15.333976
381.118523	-40.738902
381.488371	-42.033421
381.858184	-31.272736
382.227960	15.087209
382.597701	-30.301847
382.967406	-47.858754
383.337075	-13.715828
383.706708	-35.803550
384.076304	-18.408458
384.445865	-52.065939
384.815390	-8.618662
385.184879	-18.732087
385.554332	-14.201273
385.923749	25.847894
386.293130	-61.613013
386.662474	8.210079
387.031783	0.928413
387.401055	3.436542
387.770292	-10.479532
388.139492	2.951098
388.508656	-23.910162
388.877784	21.721616
389.246876	-22.453828
389.615931	-56.192217
389.984950	0.119338
390.353933	38.307635
390.722880	-2.226976
391.091791	19.375301
391.460665	2.061116
391.829503	-14.201273
392.198304	15.168116
392.567070	1.575672
392.935799	-23.586532
393.304491	-17.518476
393.673148	12.498172
394.041768	5.297413
394.410351	-22.939273
394.778898	13.549968
395.147409	14.763579
395.515883	10.394579
395.884321	-21.482939
396.252722	4.164709
396.621087	-4.330569
396.989415	8.533709
397.357707	-13.473106
397.725962	37.498561
398.094181	-39.768013
398.462363	32.805931
398.830508	-34.751754
399.198617	-0.123384
399.566689	16.624450
399.934725	67.919746
400.302724	-30.625476
400.670687	-7.485958
401.038612	-21.725662
401.406501	-53.441365
401.774354	-39.039847
402.142169	43.404801
402.509948	-15.010347
402.877690	-29.411865
403.245396	-0.204291
403.613064	-51.499587
403.980696	2.142024
404.348291	-45.916976
404.715849	8.210079
405.083370	22.045246
405.450855	-39.687106
405.818303	-17.518476
406.185713	-13.230384
406.553087	29.569635
406.920424	10.475487
407.287724	-7.324143
407.654987	-54.412254
408.022213	-17.518476
408.389402	-30.140032
408.756554	-21.806569
409.123669	-4.977828
409.490748	-1.822439
409.857789	54.246394
410.224793	-22.939273
410.591760	2.384746
410.958689	-1.094273
411.325582	-40.657995
411.692438	22.449783
412.059256	-18.246643
412.426038	-3.683310
412.792782	-12.016773
413.159489	-34.428125
413.526159	18.647135
413.892792	15.572653
414.259387	-11.693143
414.625945	14.844487
414.992466	-5.786902
415.358950	-36.936254
415.725396	-44.379736
416.091806	-3.278773
416.458177	7.077375
416.824512	4.569246
417.190809	30.540524
417.557069	8.048264
417.923291	6.349209
418.289476	-0.366106
418.655624	-8.618662
419.021734	49.634672
419.387807	7.077375
419.753843	15.168116
420.119841	23.258857
420.485801	22.368875
420.851724	8.210079
421.217609	12.902709
421.583457	-2.874236
421.949268	27.304227
422.315041	1.737487
422.680776	29.812357
423.046474	33.938635
423.412134	-13.715828
423.777756	-19.136625
424.143341	-35.884458
424.508888	-2.146069
424.874398	-14.686717
425.239870	6.672838
425.605304	22.854320
425.970701	-13.230384
426.336059	9.504598
426.701381	0.038431
427.066664	21.397987
427.431909	-22.130199
427.797117	-2.712421
428.162287	8.695524
428.527419	7.805542
428.892514	-22.292013
429.257570	-12.987662
429.622589	7.724635
429.987570	20.346190
430.352513	7.481913
430.717418	-17.761199
431.082285	34.019542
431.447114	-6.434162
431.811905	-23.910162
432.176659	35.314061
432.541374	56.026357
432.906051	28.275116
433.270691	-33.538143
433.635292	-23.343810
433.999855	35.071338
434.364380	6.996468
434.728867	-37.017162
435.093317	-18.651180
435.457728	36.851301
435.822100	-16.952125
436.186435	-9.508643
436.550732	-8.861384
436.914990	6.025579
437.279210	29.326913
437.643392	69.537894
438.007536	2.061116
438.371642	7.643727
438.735709	-26.741921
439.099739	23.420672
439.463730	48.340153
439.827682	-19.298439
440.191597	-76.014532
440.555473	-36.774439
440.919310	13.630875
441.283110	9.261875
441.646871	-3.197865
442.010593	36.608579
442.374278	2.061116
442.737924	18.080783
443.101531	10.637301
443.465100	35.233153
443.828631	17.109894
444.192123	-28.117347
444.555577	-44.460643
444.918992	-15.981236
445.282368	-38.554402
445.645707	16.786264
446.009006	13.792690
446.372267	-2.307884
446.735490	46.722005
447.098674	15.410838
447.461819	-5.463273
447.824926	-23.181995
448.187994	-8.618662
448.551023	2.222931
448.914014	35.880413
449.276966	-8.780476
449.639880	-15.333976
450.002754	1.899301
450.365590	36.284950
450.728388	4.245616
451.091146	-18.893902
451.453866	-19.945699
451.816547	12.902709
452.179189	25.443357
452.541793	49.877394
452.904357	-2.631513
453.266883	-25.528310
453.629370	0.281153
453.991818	-32.000902
454.354227	-8.214125
454.716597	-40.819810
455.078929	10.718209
455.441221	13.469061
455.803475	-21.968384
456.165689	-11.854958
456.527865	45.832024
456.890001	0.766598
457.252099	22.935227
457.614157	4.002894
457.976177	-9.751365
458.338157	20.022561
458.700099	40.573042
459.062001	24.067931
459.423864	0.685690
459.785688	-14.443995
460.147473	23.825209
460.509219	-11.450421
460.870926	-13.230384
461.232593	-16.547587
461.594221	-40.091643
461.955810	6.672838
462.317360	51.495542
462.678871	-2.146069
463.040342	-14.120365
463.401775	-9.670458
463.763167	6.430116
464.124521	23.420672
464.485835	7.481913
464.847110	-33.295421
465.208346	-18.165736
465.569542	0.200246
465.930699	2.061116
466.291817	12.740894
466.652895	12.983616
467.013933	-9.994087
467.374933	1.575672
467.735892	40.330320
468.096813	7.158283
468.457694	-9.670458
468.818535	27.385135
469.179337	-4.330569
469.540099	-22.453828
469.900822	-14.929439
470.261506	-25.042865
470.622149	-14.120365
470.982753	1.980209
471.343318	-11.531328
471.703843	-26.175569
472.064328	23.501579
472.424774	-69.137402
472.785180	17.352616
473.145546	-35.318106
473.505873	-2.388791
473.866160	-10.560439
474.226407	-26.256476
474.586615	-0.123384
474.946783	-34.832662
475.306911	25.362450
475.666999	4.407431
476.027047	-29.573680
476.387056	21.964338
476.747025	0.604783
477.106954	-4.735106
477.466843	-6.434162
477.826692	20.265283
478.186502	-16.385773
478.546271	-2.226976
478.906001	-7.647773
479.265690	-3.521495
479.625340	-37.178976
479.984950	6.106487
480.344519	7.724635
480.704049	13.630875
481.063539	24.796098
481.422989	22.530690
481.782398	-11.612236
482.141768	-38.068958
482.501098	26.009709
482.860387	-15.981236
483.219637	9.100061
483.578846	19.537116
483.938015	8.857338
484.297144	5.782857
484.656233	-4.249662
485.015282	-25.447402
485.374291	38.954894
485.733259	-21.644754
486.092187	-10.964976
486.451075	0.523875
486.809923	-48.101476
487.168730	-13.149476
487.527497	-12.097680
487.886224	25.524264
488.244910	-23.586532
488.603557	26.252431
488.962162	-6.515069
489.320728	5.701950
489.679253	33.938635
490.037738	35.394968
490.396182	-26.984643
490.754586	-3.440587
491.112950	-4.330569
491.471273	5.378320
491.829555	10.637301
492.187798	-46.159699
492.545999	-16.466680
492.904160	-58.295810
493.262281	-4.816013
493.620361	-3.036050
493.978401	-0.851550
494.336400	41.382116
494.694358	-21.078402
495.052276	-10.884069
495.410153	36.689487
495.767990	-37.421699
496.125786	23.177950
496.483541	-13.149476
496.841255	-19.136625
497.198929	-30.625476
497.556563	43.728431
497.914155	29.974172
498.271707	32.886838
498.629218	13.630875
498.986688	1.656579
499.344118	-51.337773
499.701506	-26.094662
500.058854	-7.081421
500.416161	-22.453828
500.773428	52.142801
501.130653	21.640709
501.487837	-9.670458
501.844981	1.009320
502.202084	-8.942291
502.559146	-55.949495
502.916167	12.336357
503.273146	-8.537754
503.630085	35.394968
503.986984	2.142024
504.343841	-33.214513
504.700657	-21.321125
505.057432	29.569635
505.414166	-19.217532
505.770858	-12.259495
506.127510	32.563209
506.484121	44.456598
506.840691	6.511024
507.197219	17.352616
507.553707	10.718209
507.910153	-24.233791
508.266558	23.177950
508.622922	34.262264
508.979245	7.805542
509.335527	33.048653
509.691767	-58.619439
510.047966	36.527672
510.404124	7.967357
510.760241	-21.806569
511.116316	35.152246
511.472350	14.925394
511.828343	-2.226976
512.184295	-25.447402
512.540205	20.588913
512.896073	-30.382754
513.251901	15.734468
513.607687	-65.820199
513.963431	24.796098
514.319135	-8.375939
514.674796	16.462635
515.030417	17.352616
515.385996	-23.586532
515.741533	-8.861384
516.097029	40.330320
516.452483	19.941653
516.807896	-47.939662
517.163268	31.835042
517.518597	-19.622069
517.873886	13.630875
518.229132	-2.146069
518.584337	-26.013754
518.939501	-20.916587
519.294623	36.770394
519.649703	21.074357
520.004742	5.944672
520.359738	9.342783
520.714694	3.112913
521.069607	-8.456847
521.424479	44.456598
521.779309	14.278135
522.134097	45.751116
522.488844	31.592320
522.843549	0.200246
523.198211	41.301209
523.552833	15.410838
523.907412	9.261875
524.261949	-5.301458
524.616445	-7.809587
524.970899	-25.771032
525.325311	29.731450
525.679681	16.786264
526.034009	-30.868199
526.388295	-22.211106
526.742539	-1.660625
527.096742	42.272098
527.450902	32.077764
527.805020	-27.227365
528.159096	22.935227
528.513131	13.711783
528.867123	38.064913
529.221073	36.284950
529.574981	10.718209
529.928847	-8.537754
530.282671	16.867172
530.636453	8.533709
530.990193	-27.389180
531.343891	39.035801
531.697546	21.317079
532.051159	-1.984254
532.404730	17.028987
532.758259	16.543542
533.111746	-4.087847
533.465190	36.851301
533.818593	-57.567643
534.171952	-35.479921
534.525270	-12.583125
534.878545	26.252431
535.231778	3.517450
535.584969	26.737875
535.938118	-17.680291
536.291224	33.776820
536.644287	45.103857
536.997309	-3.683310
537.350288	-13.230384
537.703224	-12.664032
538.056118	23.906116
538.408970	32.886838
538.761779	-17.518476
539.114546	-7.162328
539.467270	-11.774050
539.819951	21.640709
540.172591	7.320098
540.525187	-2.712421
540.877741	61.689875
541.230253	8.614616
541.582722	12.740894
541.935148	-8.052310
542.287532	-20.835680
542.639873	34.343172
542.992172	8.938246
543.344427	29.246005
543.696641	19.779838
544.048811	-62.826625
544.400939	-20.673865
544.753024	27.142413
545.105066	2.870190
545.457066	27.466042
545.809023	55.460005
546.160937	-41.790699
546.512808	-7.485958
546.864636	5.135598
547.216422	-1.579717
547.568165	47.369264
547.919865	-32.000902
548.271522	23.177950
548.623136	56.026357
548.974707	21.236172
549.326236	24.472468
549.677721	32.644116
550.029164	77.790450
550.380563	87.580246
550.731920	48.097431
551.083233	85.638468
551.434504	101.577227
551.785731	118.486875
552.136916	120.995005
552.488057	171.481227
552.839156	153.196153
553.190211	241.466135
553.541223	215.575764
553.892193	274.152727
554.243119	328.117968
554.594002	326.742542
554.944841	340.496801
555.295638	401.339172
555.646391	450.854505
555.997101	501.340727
556.347768	533.622783
556.698392	568.493875
557.048972	556.681394
557.399510	639.449672
557.750004	783.060320
558.100454	711.133635
558.450862	829.662987
558.801226	904.987783
559.151546	896.897042
559.501824	956.687616
559.852058	1069.796172
560.202248	1134.036653
560.552395	1256.368653
560.902499	1241.481690
561.252560	1335.657913
561.602576	1401.921079
561.952550	1536.793727
562.302480	1646.908709
562.652366	1701.278487
563.002209	1766.085320
563.352009	1878.789338
563.701765	1962.447598
564.051477	2088.177709
564.401146	2173.211394
564.750771	2311.320338
565.100353	2449.672005
565.449891	2601.858838
565.799385	2692.475135
566.148836	2803.399190
566.498243	2921.443098
566.847607	3052.594005
567.196927	3195.557394
567.546203	3323.714727
567.895435	3482.940505
568.244624	3581.728450
568.593768	3691.762524
568.942870	3827.767875
569.291927	3945.164524
569.640940	4024.777413
569.989910	4129.390690
570.338836	4189.343079
570.687718	4258.276190
571.036557	4378.504598
571.385351	4410.948468
571.734101	4452.130338
572.082808	4510.788209
572.431471	4536.354950
572.780089	4524.947005
573.128664	4610.142505
573.477195	4583.847598
573.825682	4627.294875
574.174125	4638.055561
574.522524	4596.873690
574.870879	4637.327394
575.219189	4611.437024
575.567456	4633.039301
575.915679	4619.527764
576.263858	4593.394672
576.611992	4604.398079
576.960083	4600.595431
577.308129	4603.993542
577.656131	4606.744394
578.004089	4604.478987
578.352003	4577.294098
578.699873	4665.078635
579.047698	4658.282413
579.395479	4759.902116
579.743217	4722.846524
580.090909	4748.736894
580.438558	4713.380357
580.786162	4717.263913
581.133722	4678.266542
581.481238	4582.310357
581.828709	4509.736412
582.176136	4318.714024
582.523519	4094.276875
582.870857	4024.858320
583.218151	3787.475987
583.565400	3671.454764
583.912605	3480.917820
584.259766	3360.527598
584.606882	3241.836431
584.953954	3106.478338
585.300981	2961.168635
585.647964	2887.300172
585.994902	2780.906931
586.341796	2635.759042
586.688646	2529.446709
587.035450	2458.652727
587.382210	2353.796727
587.728926	2337.615246
588.075597	2302.582338
588.422223	2291.498024
588.768805	2118.032542
589.115342	2123.696061
589.461835	2033.969746
589.808282	2058.161061
590.154685	2014.471061
590.501044	1890.520913
590.847357	1897.074413
591.193626	1832.672116
591.539851	1788.820301
591.886030	1764.709894
592.232165	1711.796450
592.578255	1718.188135
592.924300	1765.923505
593.270300	1682.265246
593.616255	1613.736672
593.962166	1595.127968
594.308032	1575.467468
594.653852	1547.473505
594.999628	1502.165357
595.345359	1429.915042
595.691045	1399.412950
596.036686	1402.972875
596.382283	1445.611079
596.727834	1369.962653
597.073340	1353.376635
597.418801	1399.089320
597.764217	1360.172857
598.109589	1285.899857
598.454915	1301.514987
598.800196	1236.708153
599.145432	1223.439338
599.490623	1207.743301
599.835768	1144.878246
600.180869	1168.098672
600.525925	1137.596579
600.870935	1113.728894
601.215900	1106.609042
601.560820	1091.722079
601.905695	1035.653246
602.250525	1036.543227
602.595309	1010.571950
602.940048	1000.701246
603.284742	952.884968
603.629390	965.911061
603.973994	937.755283
604.318552	951.994987
604.663064	890.667172
605.007532	848.433505
605.351954	910.489487
605.696330	856.766968
606.040661	857.009690
606.384947	811.620635
606.729188	743.011153
607.073383	818.093227
607.417532	732.250468
607.761636	758.626283
608.105695	727.557838
608.449708	745.762005
608.793676	663.721894
609.137598	687.589579
609.481474	665.663672
609.825305	671.650820
610.169091	635.566116
610.512831	587.264394
610.856525	621.569135
611.200174	623.349098
611.543777	622.540024
611.887334	632.006190
612.230846	602.394079
612.574312	613.559301
612.917733	575.937357
613.261107	555.872320
613.604436	601.504098
613.947720	584.351727
614.290957	560.160413
614.634149	518.574005
614.977295	554.820524
615.320395	475.207635
615.663450	529.901042
616.006458	490.741857
616.349421	501.340727
616.692338	488.557357
617.035209	463.718783
617.378034	438.718394
617.720813	485.563783
618.063546	476.421246
618.406234	459.835227
618.748875	442.682857
619.091471	439.527468
619.434020	404.251838
619.776524	394.623857
620.118982	398.345598
620.461393	480.628431
620.803759	371.646153
621.146078	380.303246
621.488351	373.749746
621.830579	363.231783
622.172760	385.643135
622.514895	347.616653
622.856984	353.522894
623.199027	334.186024
623.541024	316.224579
623.882974	300.447635
624.224878	297.534968
624.566737	283.537987
624.908549	273.343653
625.250314	259.751209
625.592034	312.179209
625.933707	277.550838
626.275334	270.835524
626.616914	249.880505
626.958449	231.676338
627.299937	250.123227
627.641378	226.255542
627.982774	262.421153
628.324123	268.731931
628.665425	252.065005
629.006681	255.544024
629.347891	190.009024
629.689055	225.365561
630.030171	248.990524
630.371242	192.921690
630.712266	212.501283
631.053243	245.026061
631.394174	215.413950
631.735059	198.099764
632.075897	209.993153
632.416688	192.274431
632.757433	229.006394
633.098131	122.046801
633.438783	211.044950
633.779388	174.232079
634.119946	187.419987
634.460458	188.309968
634.800923	137.176487
635.141342	172.371209
635.481713	214.443061
635.822038	179.329246
636.162317	132.160227
636.502548	174.555709
636.842733	168.164024
637.182871	143.649079
637.522963	129.733005
637.863007	140.979135
638.203005	139.522801
638.542956	136.448320
638.882860	137.095579
639.222717	142.597283
639.562528	91.140172
639.902291	115.816931
640.242008	72.531468
640.581677	142.273653
640.921300	105.056246
641.260876	168.325838
641.600405	92.920135
641.939887	119.943209
642.279322	91.301987
642.618710	89.441116
642.958050	118.486875
643.297344	90.169283
643.636591	124.069487
643.975791	101.010875
644.314944	66.867950
644.654049	154.167042
644.993108	110.153413
645.332119	103.438098
645.671083	123.422227
646.010000	68.162468
646.348870	95.994616
646.687693	78.356801
647.026468	128.357579
647.365197	101.496320
647.703878	66.220690
648.042511	63.793468
648.381098	60.799894
648.719637	71.560579
649.058129	97.531857
649.396574	123.098598
649.734971	112.257005
650.073321	99.635450
650.411624	61.447153
650.749879	82.806709
651.088087	66.706135
651.426248	116.949635
651.764361	72.531468
652.102427	77.871357
652.440445	98.907283
652.778416	88.793857
653.116339	93.891024
653.454215	92.839227
653.792043	105.137153
654.129824	78.761338
654.467557	55.621820
654.805243	37.984005
655.142881	72.693283
655.480472	56.026357
655.818015	86.932987
656.155510	74.311431
656.492958	73.745079
656.830358	40.087598
657.167711	68.647913
657.505015	64.602542
657.842273	61.204431
658.179482	49.230135
658.516644	64.278913
658.853758	32.239579
659.190824	70.994227
659.527842	73.016913
659.864813	30.459616
660.201736	69.861524
660.538611	38.145820
660.875438	32.320487
661.212218	19.375301
661.548950	87.903875
661.885633	72.046024
662.222269	64.602542
662.558857	21.074357
662.895397	65.816153
663.231889	53.194598
663.568334	49.311042
663.904730	71.236950
664.241078	63.469838
664.577378	19.860746
664.913631	28.113301
665.249835	35.152246
665.585991	14.116320
665.922099	28.032394
666.258159	44.780227
666.594171	30.945061
666.930135	48.744690
667.266051	48.501968
667.601919	81.188561
667.937738	77.547727
668.273510	53.760950
668.609233	-13.554013
668.944908	31.268690
669.280535	25.443357
669.616114	57.239968
669.951644	44.942042
670.287126	67.029764
670.622560	19.375301
670.957946	22.692505
671.293283	21.964338
671.628572	54.084579
671.963813	28.679653
672.299006	2.222931
672.634150	23.420672
672.969245	27.061505
673.304293	25.847894
673.639291	63.712561
673.974242	8.776431
674.309144	-3.197865
674.643998	9.019153
674.978803	23.016135
675.313560	64.602542
675.648268	53.113690
675.982928	37.903098
676.317539	42.838450
676.652101	41.382116
676.986615	-12.097680
677.321081	-13.230384
677.655498	19.860746
677.989866	95.347357
678.324186	40.734857
678.658457	58.696301
678.992680	41.948468
679.326854	28.113301
679.660979	-13.473106
679.995055	9.990042
680.329083	15.006301
680.663062	0.119338
680.996993	-18.003921
681.330874	54.731838
681.664707	28.598746
681.998491	-14.605810
682.332227	41.705746
682.665913	-4.816013
682.999551	-16.790310
683.333140	47.450172
683.666680	30.055079
684.000171	24.472468
684.333613	55.460005
684.667006	6.025579
685.000351	59.586283
685.333646	21.397987
685.666893	46.236561
686.000091	12.983616
686.333239	45.993838
686.666339	62.984394
686.999390	42.595727
687.332391	-24.314699
687.665344	-9.670458
687.998247	13.954505
688.331102	4.569246
688.663907	15.491746
688.996664	-16.547587
689.329371	-1.013365
689.662029	-60.237587
689.994638	16.462635
690.327198	60.799894
690.659708	9.342783
690.992170	-9.104106
691.324582	79.813135
691.656945	18.808950
691.989259	9.747320
692.321524	19.051672
692.653739	-1.741532
692.985905	38.712172
693.318022	-1.984254
693.650089	5.863764
693.982107	57.887227
694.314076	16.219913
694.645996	-26.903736
694.977866	23.825209
695.309686	-10.722254
695.641458	-48.586921
695.973180	59.829005
696.304852	-0.204291
696.636475	2.870190
696.968049	25.686079
697.299573	21.074357
697.631047	22.126153
697.962472	-43.327939
698.293848	2.546561
698.625174	-13.149476
698.956451	36.204042
699.287678	-15.414884
699.618855	50.362838
699.949983	5.216505
700.281061	-8.295032
700.612089	14.925394
700.943068	-9.832273
701.273998	-16.143050
701.604877	2.627468
701.935707	-5.625087
702.266487	21.640709
702.597218	39.925783
702.927899	15.329931
703.258530	26.090616
703.589111	-16.143050
703.919642	-47.777847
704.250124	11.527283
704.580556	51.414635
704.910938	-9.185013
705.241270	9.990042
705.571553	-1.094273
705.901785	-16.143050
706.231968	20.427098
706.562101	-31.839087
706.892184	-10.479532
707.222216	15.249024
707.552199	25.605172
707.882132	-17.356662
708.212016	-17.518476
708.541849	21.236172
708.871632	2.303838
709.201365	24.634283
709.531048	-6.838699
709.860681	-52.227754
710.190264	45.022950
710.519796	17.757153
710.849279	23.744301
711.178712	45.508394
711.508094	26.252431
711.837427	40.573042
712.166709	-4.168754
712.495941	13.630875
712.825123	8.371894
713.154255	16.381727
713.483336	-38.473495
713.812367	8.290987
714.141348	2.303838
714.470279	39.763968
714.799159	-34.104495
715.127990	10.960931
715.456769	13.954505
715.785499	10.070950
716.114178	25.847894
716.442807	-4.896921
716.771385	-21.563847
717.099914	32.320487
717.428391	-25.204680
717.756819	5.621042
718.085195	22.368875
718.413522	-21.402032
718.741798	3.517450
719.070023	-11.045884
719.398198	-5.867810
719.726323	6.106487
720.054397	15.734468
720.382420	25.038820
720.710393	-31.272736
721.038316	40.330320
721.366188	45.427487
721.694009	29.812357
722.021779	18.566227
722.349499	10.799116
722.677169	30.216894
723.004787	-0.204291
723.332355	-3.926032
723.659873	-10.641347
723.987339	-43.247032
724.314755	46.155653
724.642120	-34.994476
724.969435	7.158283
725.296699	22.126153
725.623911	-3.521495
725.951074	15.572653
726.278185	-1.984254
726.605245	17.918968
726.932255	44.052061
727.259214	-59.428513
727.586122	16.786264
727.912979	-17.033032
728.239785	-46.887865
728.566540	51.171913
728.893245	-10.964976
729.219898	32.644116
729.546501	9.828227
729.873052	-18.893902
730.199552	-2.226976
730.526002	-5.867810
730.852400	-21.806569
731.178748	42.595727
731.505044	42.595727
731.831290	-47.373310
732.157484	21.964338
732.483627	7.724635
732.809719	-11.693143
733.135760	10.556394
733.461750	10.960931
733.787688	8.776431
734.113576	-4.896921
734.439412	1.171135
734.765197	14.601764
735.090931	17.352616
735.416614	15.896283
735.742245	-12.744939
736.067825	-20.269328
736.393354	-0.042476
736.718832	-5.220550
737.044258	5.459227
737.369633	2.708375
737.694957	49.796487
738.020229	-27.955532
738.345450	40.896672
738.670619	24.553375
738.995738	4.002894
739.320804	-25.851939
739.645820	40.896672
739.970784	0.523875
740.295696	-39.606199
740.620557	31.187783
740.945366	-2.793328
741.270124	-8.456847
741.594831	29.246005
741.919486	-57.567643
742.244089	8.695524
742.568641	-6.515069
742.893141	8.048264
743.217590	26.737875
743.541987	-33.699958
743.866332	7.239190
744.190626	6.834653
744.514868	-3.764217
744.839058	-7.162328
745.163197	-0.608828
745.487284	3.598357
745.811320	-9.589550
746.135303	6.753746
746.459235	-2.469699
746.783115	27.708764
747.106944	3.436542
747.430720	-42.923402
747.754445	23.825209
748.078118	-24.314699
748.401739	33.857727
748.725308	-18.408458
749.048825	1.737487
749.372291	-2.955143
749.695705	-5.544180
750.019066	40.249413
750.342376	-26.903736
750.665634	0.281153
750.988840	-19.379347
751.311994	17.028987
751.635096	-27.793717
751.958146	-1.984254
752.281143	36.042227
752.604089	-8.942291
752.926983	-31.677273
753.249825	-37.017162
753.572615	-17.761199
753.895352	0.119338
754.218038	-24.314699
754.540671	35.152246
754.863252	-29.897310
755.185781	10.556394
755.508258	4.083801
755.830683	16.300820
756.153056	-24.476513
756.475376	-22.939273
756.797644	24.391561
757.119860	43.971153
757.442023	-24.071976
757.764135	11.689098
758.086194	8.048264
758.408201	29.488727
758.730155	5.782857
759.052057	12.012727
759.373907	-4.735106
759.695704	4.326524
760.017449	30.864153
760.339142	-10.560439
760.660782	7.481913
760.982370	-34.185402
761.303905	-2.793328
761.625388	38.631264
761.946818	-3.683310
762.268196	-15.900328
762.589521	-33.214513
762.910794	-1.013365
763.232015	-1.660625
763.553182	17.676246
763.874298	-32.162717
764.195360	-5.220550
764.516370	-25.204680
764.837328	-30.868199
765.158233	10.313672
765.479085	-7.971402
765.799885	-17.437569
766.120631	-20.673865
766.441326	17.757153
766.761967	34.424079
767.082556	-15.495791
767.403092	3.032005
767.723575	-11.288606
768.044006	-8.133217
768.364384	-1.741532
768.684709	1.656579
769.004981	51.819172
769.325200	-1.336995
769.645367	-26.499199
769.965481	-35.722643
770.285541	1.818394
770.605549	-8.133217
770.925504	-17.194847
771.245407	39.925783
771.565256	7.481913
771.885052	-12.340402
772.204795	-24.314699
772.524486	11.284561
772.844123	45.670209
773.163708	-9.265921
773.483239	-18.408458
773.802717	-48.020569
774.122142	-0.366106
774.441515	6.834653
774.760834	-11.612236
775.080100	-26.499199
775.399313	-1.417902
775.718473	20.184375
776.037579	-12.502217
776.356633	-23.667439
776.675633	-57.891273
776.994580	4.488338
777.313474	-5.139643
777.632315	11.365468
777.951103	10.313672
778.269837	-26.903736
778.588518	-9.427736
778.907146	36.932209
779.225720	-3.683310
779.544242	-12.097680
779.862709	37.417653
780.181124	10.313672
780.499485	5.378320
780.817793	-11.935865
781.136047	12.012727
781.454248	18.970764
781.772396	20.427098
782.090490	1.899301
782.408531	-30.706384
782.726518	-1.417902
783.044452	28.113301
783.362333	-3.845125
783.680159	3.679264
783.997933	-11.288606
784.315653	-26.256476
784.633319	0.119338
784.950932	4.002894
785.268491	-34.428125
785.585996	60.638079
785.903448	20.346190
786.220847	12.740894
786.538191	11.284561
786.855482	-6.272347
787.172720	-13.392199
787.489903	3.355635
787.807033	14.763579
788.124110	-18.408458
788.441132	-59.994865
788.758101	-17.923013
789.075016	35.071338
789.391877	8.695524
789.708685	-26.580106
790.025438	31.592320
790.342138	-7.324143
790.658784	-11.207699
790.975376	-0.851550
791.291915	3.436542
791.608399	16.867172
791.924830	-33.457236
792.241206	7.481913
792.557529	-11.774050
792.873798	33.615005
793.190012	0.604783
793.506173	-22.211106
793.822280	-1.256087
794.138333	24.472468
794.454332	-25.528310
794.770277	-36.369902
795.086167	25.605172
795.402004	-5.220550
795.717787	-7.162328
796.033515	-14.524902
796.349190	-39.444384
796.664810	8.938246
796.980376	35.475875
797.295888	-12.016773
797.611346	-21.725662
797.926750	-24.881050
798.242099	20.103468
798.557394	49.472857
798.872635	27.708764
799.187822	8.371894
799.502955	24.957913
799.818033	-7.081421
800.133057	17.433524
800.448027	-25.042865
800.762942	-25.851939
801.077803	4.326524
801.392610	37.741283
801.707362	-1.903347
802.022060	-3.036050
802.336703	-4.411476
802.651292	-9.185013
802.965827	16.867172
803.280307	17.514431
803.594733	-24.961958
803.909104	56.511801
804.223421	-9.023199
804.537684	38.064913
804.851891	-1.013365
805.166045	-7.243236
805.480143	-9.185013
805.794188	20.265283
806.108177	15.329931
806.422112	2.465653
806.735993	13.226338
807.049818	-9.508643
807.363590	8.695524
807.677306	-20.188421
807.990968	-3.521495
808.304575	4.245616
808.618128	-16.709402
808.931625	6.349209
809.245068	-10.884069
809.558457	-9.265921
809.871790	19.779838
810.185069	22.530690
810.498293	-8.456847
810.811462	-4.168754
811.124576	9.180968
811.437636	5.054690
811.750640	12.336357
812.063590	-46.159699
812.376485	-44.703365
812.689325	-13.796736
813.002110	10.151857
813.314840	-33.376328
813.627516	3.841079
813.940136	-32.648162
814.252701	10.637301
814.565212	-7.405050
814.877667	-1.256087
815.190067	-28.117347
815.502413	8.290987
815.814703	6.106487
816.126938	25.119727
816.439118	-30.382754
816.751243	-32.000902
817.063313	-12.906754
817.375328	-4.411476
817.687287	-22.130199
817.999192	-16.628495
818.311041	-29.088236
818.622835	31.025968
818.934574	14.763579
819.246258	45.508394
819.557887	9.828227
819.869460	-3.764217
820.180978	-13.796736
820.492441	-11.531328
820.803848	-4.977828
821.115200	-50.447791
821.426497	4.973783
821.737739	-18.893902
822.048925	21.074357
822.360056	-0.042476
822.671131	-46.240606
822.982151	9.423690
823.293116	10.637301
823.604025	-16.304865
823.914879	8.371894
824.225677	-52.065939
824.536420	-6.191439
824.847107	-4.573291
825.157739	24.310653
825.468315	16.139005
825.778836	-62.098458
826.089301	-62.745717
826.399711	18.566227
826.710065	5.540135
827.020363	3.841079
827.330606	68.728820
827.640794	1.009320
827.950925	7.967357
828.261001	43.242987
828.571022	-12.178587
828.880986	-12.016773
829.190895	10.151857
829.500749	29.569635
829.810546	-12.340402
830.120288	55.460005
830.429974	60.071727
830.739604	51.333727
831.049179	-24.800143
831.358697	19.051672
831.668160	-35.803550
831.977567	12.821801
832.286918	-10.560439
832.596213	32.482301
832.905453	14.601764
833.214636	25.686079
833.523764	20.993450
833.832836	4.811968
834.141851	20.508005
834.450811	-27.308273
834.759715	-8.942291
835.068563	70.185153
835.377355	5.621042
835.686091	-18.812995
835.994770	-15.091254
836.303394	-0.447013
836.611962	14.682672
836.920473	13.307246
837.228929	28.356024
837.537328	-21.402032
837.845672	0.362061
838.153959	-19.379347
838.462190	18.323505
838.770365	4.811968
839.078483	-21.321125
839.386546	15.249024
839.694552	5.701950
840.002502	-12.744939
840.310396	39.359431
840.618233	-12.097680
840.926015	8.371894
841.233739	9.423690
841.541408	-6.272347
841.849020	29.326913
842.156576	34.828616
842.464076	-8.699569
842.771519	45.993838
843.078906	36.608579
843.386237	28.517838
843.693511	-1.741532
844.000729	29.812357
844.307890	-9.751365
844.614995	15.168116
844.922043	40.411227
845.229035	39.763968
845.535970	-29.654587
845.842849	10.718209
846.149671	-8.295032
846.456437	7.320098
846.763146	-4.735106
847.069799	-3.764217
847.376395	-18.165736
847.682934	-0.366106
847.989417	34.666801
848.295843	0.200246
848.602213	0.362061
848.908526	-7.485958
849.214782	11.446375
849.520981	-35.965365
849.827124	-20.997495
850.133210	-5.220550
850.439239	-29.654587
850.745212	-21.159310
851.051128	-55.706773
851.356987	17.352616
851.662789	-32.000902
851.968534	-15.738513
852.274223	12.336357
852.579854	-7.971402
852.885429	18.080783
853.190947	-40.091643
853.496408	-11.612236
853.801812	-7.405050
854.107160	1.656579
854.412450	-8.456847
854.717683	-6.595976
855.022859	-48.101476
855.327979	-0.851550
855.633041	26.171524
855.938046	-14.767625
856.242995	-15.657606
856.547886	17.352616
856.852720	20.669820
857.157497	16.867172
857.462217	-0.042476
857.766880	-17.923013
858.071486	-20.835680
858.376035	-34.913569
858.680526	-47.130587
858.984961	-45.512439
859.289338	-44.460643
859.593658	30.459616
859.897921	2.142024
860.202126	4.892875
860.506275	-19.783884
860.810366	-23.262902
861.114399	-1.822439
861.418376	-10.317717
861.722295	-18.974810
862.026157	46.236561
862.329961	-31.839087
862.633709	1.575672
862.937398	-4.330569
863.241031	8.776431
863.544606	-54.735884
863.848124	-10.479532
864.151584	29.165098
864.454987	0.281153
864.758332	-1.417902
865.061620	-6.353254
865.364850	-3.521495
865.668023	-26.418291
865.971138	21.640709
866.274196	46.722005
866.577196	2.061116
866.880139	-35.965365
867.183024	-11.693143
867.485852	28.598746
867.788622	22.773413
868.091334	19.375301
868.393989	-12.016773
868.696586	-20.512050
868.999125	-12.825847
869.301607	-15.172162
869.604031	-1.579717
869.906397	32.482301
870.208706	34.262264
870.510957	15.734468
870.813150	3.355635
871.115285	-39.282569
871.417363	-26.013754
871.719382	-0.042476
872.021344	-18.327550
872.323248	21.802524
872.625094	-8.375939
872.926883	-8.780476
873.228613	-8.942291
873.530286	-41.952513
873.831900	-20.512050
874.133457	-23.910162
874.434956	13.469061
874.736397	-10.884069
875.037780	-12.664032
875.339105	15.249024
875.640371	9.990042
875.941580	4.731061
876.242731	-30.382754
876.543824	-46.483328
876.844859	-44.460643
877.145835	-1.417902
877.446754	-4.735106
877.747614	-9.832273
878.048417	21.721616
878.349161	2.303838
878.649847	2.222931
878.950475	12.174542
879.251045	5.378320
879.551556	15.329931
879.852010	12.255450
880.152405	7.886450
880.452741	46.964727
880.753020	8.210079
881.053240	16.462635
881.353402	2.708375
881.653506	13.630875
881.953552	-6.110532
882.253539	46.155653
882.553467	33.291375
882.853338	-4.330569
883.153150	-27.065550
883.452903	-35.884458
883.752598	-29.897310
884.052235	8.371894
884.351814	23.744301
884.651333	-3.116958
884.950795	-48.506013
885.250198	-11.612236
885.549542	-8.861384
885.848828	-11.693143
886.148055	-1.903347
886.447224	-15.900328
886.746335	-22.211106
887.045386	16.786264
887.344379	-19.379347
887.643314	-11.450421
887.942190	23.420672
888.241007	-6.757791
888.539766	6.834653
888.838465	4.488338
889.137107	-28.602791
889.435689	-3.683310
889.734213	3.679264
890.032678	-7.890495
890.331085	-7.000513
