wavelength	0.007826

178.106480	-76.862037
178.493382	19.306530
178.880256	19.306530
179.267103	32.251715
179.653922	-19.529025
180.040713	-44.610322
180.427476	-4.156618
180.814211	-26.810692
181.200918	-13.865507
181.587598	-0.111248
181.974250	11.215789
182.360873	6.361345
182.747469	7.979493
183.134037	11.215789
183.520577	33.869863
183.907089	32.251715
184.293573	3.125049
184.680029	-9.011063
185.066457	2.315975
185.452857	52.478567
185.839229	27.397271
186.225573	-30.046988
186.611889	35.488012
186.998176	3.125049
187.384436	-17.101803
187.770668	-29.237914
188.156871	8.788567
188.543046	4.743197
188.929193	18.497456
189.315312	19.306530
189.701403	-32.474211
190.087466	-21.956248
190.473500	-13.865507
190.859506	5.552271
191.245484	-21.956248
191.631434	-18.719951
192.017355	-15.483655
192.403248	18.497456
192.789113	-21.956248
193.174949	-4.965692
193.560757	-4.965692
193.946537	-29.237914
194.332288	-28.428840
194.718011	10.406715
195.103705	50.860419
195.489371	50.051345
195.875009	-46.228470
196.260618	-22.765322
196.646199	7.170419
197.031751	-38.137729
197.417275	18.497456
197.802771	21.733752
198.188237	-21.956248
198.573676	7.170419
198.959085	-7.392914
199.344466	18.497456
199.729819	-60.791803
200.115143	-6.583840
200.500438	0.697826
200.885705	-21.147174
201.270943	-35.710507
201.656152	-34.901433
202.041333	31.442641
202.426485	1.506900
202.811608	0.697826
203.196703	30.633567
203.581769	11.215789
203.966806	-0.111248
204.351814	17.688382
204.736794	6.361345
205.121745	43.578752
205.506667	52.478567
205.891560	41.151530
206.276424	15.261160
206.661260	-10.629211
207.046066	24.160975
207.430844	-5.774766
207.815593	-4.156618
208.200313	-6.583840
208.585003	-5.774766
208.969665	15.261160
209.354299	19.306530
209.738903	-21.956248
210.123478	-28.428840
210.508024	14.452086
210.892541	-0.111248
211.277029	0.697826
211.661488	-26.810692
212.045918	-44.610322
212.430318	41.151530
212.814690	-30.046988
213.199033	0.697826
213.583346	21.733752
213.967631	-8.201988
214.351886	-0.920322
214.736112	-46.228470
215.120309	-50.273840
215.504476	11.215789
215.888615	-33.283285
216.272724	23.351900
216.656804	-1.729396
217.040854	-5.774766
217.424876	-16.292729
217.808868	72.705419
218.192830	-25.192544
218.576764	63.805604
218.960668	-21.147174
219.344543	20.924678
219.728388	-0.111248
220.112204	4.743197
220.495991	-57.555507
220.879748	-2.538470
221.263476	18.497456
221.647174	-0.920322
222.030843	3.934123
222.414482	-0.920322
222.798092	8.788567
223.181672	-5.774766
223.565223	-18.719951
223.948744	-33.283285
224.332236	-11.438285
224.715698	17.688382
225.099131	-4.156618
225.482534	14.452086
225.865907	21.733752
226.249251	5.552271
226.632565	-7.392914
227.015850	-10.629211
227.399104	7.170419
227.782329	-77.782359
228.165525	18.497456
228.548691	3.934123
228.931827	-12.247359
229.314933	-24.383470
229.698009	-7.392914
230.081056	31.442641
230.464073	-23.574396
230.847060	-34.092359
231.230017	12.024863
231.612944	-30.046988
231.995842	-18.719951
232.378709	81.605234
232.761547	-12.247359
233.144355	12.833937
233.527133	-51.891988
233.909881	-30.856063
234.292599	2.315975
234.675287	6.361345
235.057945	33.869863
235.440574	-59.982729
235.823172	-18.719951
236.205740	0.697826
236.588278	37.915234
236.970786	-13.865507
237.353264	14.452086
237.735712	11.215789
238.118130	71.087271
238.500517	8.788567
238.882875	43.578752
239.265202	-9.011063
239.647499	-5.774766
240.029767	-3.347544
240.412003	0.697826
240.794210	-46.228470
241.176387	8.788567
241.558533	-32.474211
241.940649	57.333012
242.322734	3.125049
242.704790	8.788567
243.086815	8.788567
243.468810	19.306530
243.850774	52.478567
244.232709	-30.046988
244.614612	3.125049
244.996486	4.743197
245.378329	14.452086
245.760142	35.488012
246.141924	12.024863
246.523676	7.979493
246.905397	-24.383470
247.287088	-39.755877
247.668748	-43.801248
248.050378	28.206345
248.431978	7.170419
248.813547	-39.755877
249.195085	20.115604
249.576593	-17.101803
249.958070	20.924678
250.339517	28.206345
250.720933	-27.619766
251.102318	-4.965692
251.483673	-24.383470
251.864997	-38.946803
252.246291	-30.856063
252.627554	-24.383470
253.008786	66.232826
253.389987	28.206345
253.771158	11.215789
254.152298	-38.137729
254.533408	-44.610322
254.914486	-30.046988
255.295534	13.643012
255.676551	-29.237914
256.057537	-56.746433
256.438492	-30.046988
256.819417	-9.820137
257.200310	62.996530
257.581173	-13.056433
257.962005	17.688382
258.342806	-4.965692
258.723576	-13.865507
259.104315	-4.965692
259.485023	-40.564951
259.865700	-5.774766
260.246347	0.697826
260.626962	16.879308
261.007546	51.669493
261.388099	22.542826
261.768621	-9.820137
262.149112	-4.156618
262.529573	-0.111248
262.910002	22.542826
263.290399	-3.347544
263.670766	-42.183100
264.051102	-18.719951
264.431406	-9.011063
264.811680	-47.037544
265.191922	72.705419
265.572133	-4.156618
265.952313	54.096715
266.332461	-16.292729
266.712578	17.688382
267.092665	17.688382
267.472719	-3.347544
267.852743	34.678937
268.232735	15.261160
268.612696	-1.729396
268.992626	-13.056433
269.372524	19.306530
269.752391	-24.383470
270.132226	7.979493
270.512030	31.442641
270.891803	-12.247359
271.271545	-37.328655
271.651255	52.478567
272.030933	23.351900
272.410580	-67.264396
272.790196	-7.392914
273.169780	12.024863
273.549332	-28.428840
273.928853	75.941715
274.308343	-8.201988
274.687800	11.215789
275.067227	-12.247359
275.446622	11.215789
275.825985	22.542826
276.205316	10.406715
276.584616	-32.474211
276.963885	12.024863
277.343121	14.452086
277.722326	-27.619766
278.101499	-34.092359
278.480641	-24.383470
278.859751	-20.338100
279.238829	-69.691618
279.617875	33.060789
279.996890	-32.474211
280.375873	27.397271
280.754824	-36.519581
281.133743	6.361345
281.512631	-75.355137
281.891486	29.824493
282.270310	0.697826
282.649102	3.125049
283.027862	-28.428840
283.406590	-8.201988
283.785286	20.115604
284.163950	23.351900
284.542582	-27.619766
284.921183	28.206345
285.299751	-8.201988
285.678287	-0.920322
286.056792	-97.200137
286.435264	-29.237914
286.813704	20.924678
287.192112	5.552271
287.570489	3.934123
287.948833	12.024863
288.327145	-15.483655
288.705425	-25.192544
289.083672	4.743197
289.461888	-3.347544
289.840071	8.788567
290.218223	-34.901433
290.596342	-40.564951
290.974429	-4.965692
291.352483	58.951160
291.730506	-9.820137
292.108496	22.542826
292.486454	-35.710507
292.864379	-40.564951
293.242273	22.542826
293.620134	-21.147174
293.997963	6.361345
294.375759	-40.564951
294.753523	-5.774766
295.131255	9.597641
295.508954	-8.201988
295.886621	-72.118840
296.264255	-30.856063
296.641857	-11.438285
297.019427	19.306530
297.396964	28.206345
297.774469	46.815049
298.151941	8.788567
298.529380	0.697826
298.906788	-24.383470
299.284162	-27.619766
299.661504	-22.765322
300.038814	20.924678
300.416090	10.406715
300.793335	27.397271
301.170546	-43.801248
301.547726	-5.774766
301.924872	-32.474211
302.301986	8.788567
302.679067	-15.483655
303.056115	16.070234
303.433131	-5.774766
303.810114	5.552271
304.187064	-45.419396
304.563982	10.406715
304.940866	4.743197
305.317718	-72.927914
305.694537	18.497456
306.071324	36.297086
306.448077	-89.918470
306.824798	-6.583840
307.201486	-13.056433
307.578141	18.497456
307.954763	-55.128285
308.331352	50.860419
308.707908	-12.247359
309.084432	-40.564951
309.460922	12.024863
309.837379	8.788567
310.213804	-9.820137
310.590195	30.633567
310.966554	-12.247359
311.342879	3.934123
311.719172	-34.901433
312.095431	-18.719951
312.471657	-44.610322
312.847851	-19.529025
313.224011	-30.856063
313.600138	18.497456
313.976232	41.960604
314.352292	-13.056433
314.728320	34.678937
315.104314	-55.128285
315.480275	20.115604
315.856203	52.478567
316.232098	27.397271
316.607960	-10.629211
316.983788	-26.810692
317.359583	-18.719951
317.735345	1.506900
318.111073	22.542826
318.486769	12.024863
318.862430	-12.247359
319.238059	-53.510137
319.613654	-25.192544
319.989216	-38.137729
320.364744	-61.600877
320.740239	-21.147174
321.115701	-33.283285
321.491129	32.251715
321.866524	-7.392914
322.241885	-7.392914
322.617213	20.115604
322.992507	3.125049
323.367768	-21.956248
323.742995	14.452086
324.118189	43.578752
324.493349	-30.856063
324.868475	34.678937
325.243568	14.452086
325.618628	0.697826
325.993654	32.251715
326.368646	-4.965692
326.743604	32.251715
327.118529	-26.810692
327.493421	18.497456
327.868278	2.315975
328.243102	-30.856063
328.617892	-7.392914
328.992648	-25.192544
329.367371	-10.629211
329.742060	-34.092359
330.116715	-24.383470
330.491336	-21.956248
330.865924	-14.674581
331.240477	43.578752
331.614997	12.024863
331.989483	41.151530
332.363935	12.833937
332.738354	44.387826
333.112738	-23.574396
333.487088	40.342456
333.861405	-20.338100
334.235687	-49.464766
334.609936	52.478567
334.984150	28.206345
335.358331	18.497456
335.732478	48.433197
336.106590	38.724308
336.480669	-1.729396
336.854713	-48.655692
337.228724	-39.755877
337.602700	-19.529025
337.976642	22.542826
338.350550	-15.483655
338.724424	12.833937
339.098264	14.452086
339.472070	37.106160
339.845842	12.833937
340.219579	-9.011063
340.593282	-29.237914
340.966951	-52.701063
341.340586	-17.101803
341.714186	-7.392914
342.087752	-7.392914
342.461284	-47.037544
342.834782	3.934123
343.208245	-5.774766
343.581674	44.387826
343.955069	-24.383470
344.328429	13.643012
344.701755	-32.474211
345.075047	-8.201988
345.448304	-22.765322
345.821526	54.096715
346.194715	-26.810692
346.567869	-21.147174
346.940988	-15.483655
347.314073	7.979493
347.687123	-24.383470
348.060139	7.979493
348.433121	1.506900
348.806067	24.970049
349.178980	-17.101803
349.551858	46.005975
349.924701	-17.910877
350.297509	-39.755877
350.670283	22.542826
351.043023	-5.774766
351.415727	12.024863
351.788397	10.406715
352.161033	8.788567
352.533633	70.278197
352.906199	-11.438285
353.278731	-34.901433
353.651227	-33.283285
354.023689	68.660049
354.396116	32.251715
354.768508	16.879308
355.140866	32.251715
355.513188	-29.237914
355.885476	-17.101803
356.257729	31.442641
356.629947	57.333012
357.002130	-12.247359
357.374279	-4.156618
357.746392	-10.629211
358.118471	-11.438285
358.490514	7.979493
358.862523	5.552271
359.234497	-53.510137
359.606436	16.070234
359.978339	-14.674581
360.350208	23.351900
360.722042	-41.374025
361.093841	-0.111248
361.465604	-17.101803
361.837333	22.542826
362.209026	40.342456
362.580685	3.125049
362.952308	-24.383470
363.323896	-22.765322
363.695449	7.979493
364.066967	-9.011063
364.438450	-14.674581
364.809897	40.342456
365.181310	34.678937
365.552687	-21.147174
365.924028	-32.474211
366.295335	3.125049
366.666606	27.397271
367.037842	-68.073470
367.409043	4.743197
367.780209	-33.283285
368.151339	-14.674581
368.522434	-12.247359
368.893493	3.125049
369.264517	-4.965692
369.635506	-20.338100
370.006459	45.196900
370.377377	19.306530
370.748260	26.588197
371.119107	-13.865507
371.489918	-5.774766
371.860694	5.552271
372.231435	-15.483655
372.602140	6.361345
372.972809	13.643012
373.343444	6.361345
373.714042	-11.438285
374.084605	16.879308
374.455132	-4.965692
374.825624	29.824493
375.196080	-3.347544
375.566501	-8.201988
375.936885	-26.001618
376.307235	-5.774766
376.677548	-17.101803
377.047826	-22.765322
377.418068	0.697826
377.788275	-31.665137
378.158445	9.597641
378.528580	9.597641
378.898679	1.506900
379.268743	-9.820137
379.638770	-34.092359
380.008762	-2.538470
380.378718	16.879308
380.748638	-0.920322
381.118523	19.306530
381.488371	-16.292729
381.858184	8.788567
382.227960	4.743197
382.597701	-7.392914
382.967406	3.125049
383.337075	32.251715
383.706708	0.697826
384.076304	3.125049
384.445865	33.060789
384.815390	20.924678
385.184879	-32.474211
385.554332	9.597641
385.923749	-4.965692
386.293130	-42.183100
386.662474	-88.300322
387.031783	0.697826
387.401055	-33.283285
387.770292	11.215789
388.139492	24.160975
388.508656	24.160975
388.877784	0.697826
389.246876	11.215789
389.615931	-51.891988
389.984950	-21.147174
390.353933	24.970049
390.722880	10.406715
391.091791	-47.037544
391.460665	-40.564951
391.829503	49.242271
392.198304	-13.056433
392.567070	-34.901433
392.935799	26.588197
393.304491	24.160975
393.673148	1.506900
394.041768	13.643012
394.410351	-40.564951
394.778898	17.688382
395.147409	24.160975
395.515883	36.297086
395.884321	-81.018655
396.252722	-16.292729
396.621087	19.306530
396.989415	-12.247359
397.357707	-21.147174
397.725962	-4.965692
398.094181	16.070234
398.462363	7.170419
398.830508	-28.428840
399.198617	15.261160
399.566689	11.215789
399.934725	-54.319211
400.302724	55.714863
400.670687	4.743197
401.038612	24.970049
401.406501	-10.629211
401.774354	-5.774766
402.142169	8.788567
402.509948	20.924678
402.877690	-3.347544
403.245396	-8.201988
403.613064	35.488012
403.980696	53.287641
404.348291	39.533382
404.715849	7.979493
405.083370	-34.092359
405.450855	4.743197
405.818303	44.387826
406.185713	33.060789
406.553087	21.733752
406.920424	25.779123
407.287724	3.934123
407.654987	6.361345
408.022213	12.833937
408.389402	32.251715
408.756554	-6.583840
409.123669	5.552271
409.490748	-7.392914
409.857789	42.769678
410.224793	-6.583840
410.591760	-3.347544
410.958689	-38.137729
411.325582	-36.519581
411.692438	1.506900
412.059256	-6.583840
412.426038	36.297086
412.792782	-43.801248
413.159489	-1.729396
413.526159	-64.837174
413.892792	-6.583840
414.259387	41.151530
414.625945	0.697826
414.992466	-3.347544
415.358950	-39.755877
415.725396	20.924678
416.091806	-38.946803
416.458177	-10.629211
416.824512	-40.564951
417.190809	-26.001618
417.557069	-62.409951
417.923291	12.833937
418.289476	-0.920322
418.655624	-1.729396
419.021734	-34.092359
419.387807	35.488012
419.753843	32.251715
420.119841	42.769678
420.485801	33.869863
420.851724	-4.965692
421.217609	2.315975
421.583457	-21.147174
421.949268	-21.956248
422.315041	-39.755877
422.680776	-15.483655
423.046474	-4.156618
423.412134	-33.283285
423.777756	13.643012
424.143341	30.633567
424.508888	48.433197
424.874398	-17.101803
425.239870	-9.820137
425.605304	-2.538470
425.970701	-4.965692
426.336059	-5.774766
426.701381	-1.729396
427.066664	-25.192544
427.431909	17.688382
427.797117	3.125049
428.162287	-38.137729
428.527419	24.160975
428.892514	-40.564951
429.257570	-25.192544
429.622589	-20.338100
429.987570	-12.247359
430.352513	-9.820137
430.717418	-2.538470
431.082285	51.669493
431.447114	-72.927914
431.811905	-42.992174
432.176659	30.633567
432.541374	-23.574396
432.906051	3.125049
433.270691	31.442641
433.635292	-5.774766
433.999855	8.788567
434.364380	-31.665137
434.728867	64.614678
435.093317	36.297086
435.457728	-12.247359
435.822100	-13.865507
436.186435	-9.820137
436.550732	-4.965692
436.914990	-8.201988
437.279210	-0.111248
437.643392	-1.729396
438.007536	0.697826
438.371642	24.160975
438.735709	-51.082914
439.099739	7.170419
439.463730	16.879308
439.827682	4.743197
440.191597	16.070234
440.555473	-74.546063
440.919310	2.315975
441.283110	-4.156618
441.646871	-7.392914
442.010593	-17.101803
442.374278	66.232826
442.737924	20.924678
443.101531	75.941715
443.465100	-17.910877
443.828631	-26.001618
444.192123	12.833937
444.555577	-13.056433
444.918992	30.633567
445.282368	3.125049
445.645707	18.497456
446.009006	-15.483655
446.372267	13.643012
446.735490	10.406715
447.098674	19.306530
447.461819	-49.464766
447.824926	-4.156618
448.187994	-29.237914
448.551023	73.514493
448.914014	15.261160
449.276966	20.115604
449.639880	44.387826
450.002754	26.588197
450.365590	-25.192544
450.728388	-81.827729
451.091146	83.223382
451.453866	16.070234
451.816547	-66.455322
452.179189	-17.101803
452.541793	-34.092359
452.904357	-13.056433
453.266883	-9.011063
453.629370	-4.156618
453.991818	29.824493
454.354227	12.833937
454.716597	-31.665137
455.078929	18.497456
455.441221	-48.655692
455.803475	-21.956248
456.165689	52.478567
456.527865	-22.765322
456.890001	-1.729396
457.252099	-10.629211
457.614157	-35.710507
457.976177	-11.438285
458.338157	7.170419
458.700099	15.261160
459.062001	41.151530
459.423864	20.115604
459.785688	-30.046988
460.147473	8.788567
460.509219	-2.538470
460.870926	33.869863
461.232593	-32.474211
461.594221	0.697826
461.955810	-18.719951
462.317360	33.869863
462.678871	26.588197
463.040342	-7.392914
463.401775	13.643012
463.763167	29.015419
464.124521	6.361345
464.485835	-30.046988
464.847110	-6.583840
465.208346	20.924678
465.569542	28.206345
465.930699	5.552271
466.291817	-34.092359
466.652895	-39.755877
467.013933	64.614678
467.374933	-21.147174
467.735892	-8.201988
468.096813	-43.801248
468.457694	-6.583840
468.818535	24.970049
469.179337	-6.583840
469.540099	-13.865507
469.900822	-53.510137
470.261506	-27.619766
470.622149	-9.011063
470.982753	-33.283285
471.343318	-66.455322
471.703843	-36.519581
472.064328	-33.283285
472.424774	-62.409951
472.785180	25.779123
473.145546	2.315975
473.505873	6.361345
473.866160	-34.092359
474.226407	14.452086
474.586615	-9.011063
474.946783	15.261160
475.306911	48.433197
475.666999	23.351900
476.027047	27.397271
476.387056	-18.719951
476.747025	-16.292729
477.106954	-39.755877
477.466843	38.724308
477.826692	43.578752
478.186502	20.115604
478.546271	-1.729396
478.906001	-54.319211
479.265690	33.060789
479.625340	14.452086
479.984950	26.588197
480.344519	29.015419
480.704049	-28.428840
481.063539	-19.529025
481.422989	-6.583840
481.782398	-39.755877
482.141768	-40.564951
482.501098	-38.137729
482.860387	-44.610322
483.219637	6.361345
483.578846	53.287641
483.938015	7.170419
484.297144	-21.147174
484.656233	-4.965692
485.015282	-23.574396
485.374291	3.125049
485.733259	-5.774766
486.092187	-22.765322
486.451075	9.597641
486.809923	-6.583840
487.168730	-34.092359
487.527497	-29.237914
487.886224	-34.901433
488.244910	-8.201988
488.603557	-30.856063
488.962162	16.879308
489.320728	16.070234
489.679253	-21.147174
490.037738	50.051345
490.396182	29.015419
490.754586	-13.865507
491.112950	12.833937
491.471273	25.779123
491.829555	-10.629211
492.187798	27.397271
492.545999	-8.201988
492.904160	-17.910877
493.262281	-27.619766
493.620361	50.051345
493.978401	-19.529025
494.336400	-38.137729
494.694358	35.488012
495.052276	-14.674581
495.410153	-79.400507
495.767990	-1.729396
496.125786	9.597641
496.483541	9.597641
496.841255	12.024863
497.198929	-32.474211
497.556563	52.478567
497.914155	11.215789
498.271707	33.869863
498.629218	15.261160
498.986688	-8.201988
499.344118	-49.464766
499.701506	14.452086
500.058854	33.060789
500.416161	41.960604
500.773428	-11.438285
501.130653	-30.856063
501.487837	2.315975
501.844981	-25.192544
502.202084	-54.319211
502.559146	5.552271
502.916167	-41.374025
503.273146	41.151530
503.630085	-4.156618
503.986984	29.015419
504.343841	7.170419
504.700657	4.743197
505.057432	53.287641
505.414166	-44.610322
505.770858	-52.701063
506.127510	7.979493
506.484121	-45.419396
506.840691	16.879308
507.197219	-32.474211
507.553707	-0.111248
507.910153	59.760234
508.266558	-15.483655
508.622922	-17.101803
508.979245	15.261160
509.335527	-4.156618
509.691767	1.506900
510.047966	3.934123
510.404124	-43.801248
510.760241	-69.691618
511.116316	-10.629211
511.472350	3.934123
511.828343	-29.237914
512.184295	33.060789
512.540205	-39.755877
512.896073	7.170419
513.251901	3.125049
513.607687	56.523937
513.963431	37.106160
514.319135	-21.956248
514.674796	-1.729396
515.030417	-17.101803
515.385996	-9.011063
515.741533	-9.011063
516.097029	-13.865507
516.452483	-10.629211
516.807896	-19.529025
517.163268	-12.247359
517.518597	8.788567
517.873886	3.934123
518.229132	-42.992174
518.584337	34.678937
518.939501	-39.755877
519.294623	10.406715
519.649703	15.261160
520.004742	-55.937359
520.359738	-20.338100
520.714694	-54.319211
521.069607	5.552271
521.424479	-15.483655
521.779309	36.297086
522.134097	11.215789
522.488844	29.015419
522.843549	37.106160
523.198211	32.251715
523.552833	-51.891988
523.907412	57.333012
524.261949	51.669493
524.616445	34.678937
524.970899	8.788567
525.325311	-34.092359
525.679681	7.170419
526.034009	16.879308
526.388295	-27.619766
526.742539	-20.338100
527.096742	5.552271
527.450902	3.934123
527.805020	-10.629211
528.159096	1.506900
528.513131	-32.474211
528.867123	13.643012
529.221073	18.497456
529.574981	4.743197
529.928847	-34.092359
530.282671	41.151530
530.636453	3.934123
530.990193	-47.846618
531.343891	12.833937
531.697546	-40.564951
532.051159	0.697826
532.404730	-5.774766
532.758259	-26.810692
533.111746	-0.920322
533.465190	36.297086
533.818593	3.125049
534.171952	-20.338100
534.525270	30.633567
534.878545	8.788567
535.231778	-4.965692
535.584969	-8.201988
535.938118	-21.147174
536.291224	3.934123
536.644287	29.824493
536.997309	3.125049
537.350288	49.242271
537.703224	-20.338100
538.056118	16.879308
538.408970	13.643012
538.761779	-3.347544
539.114546	-24.383470
539.467270	-9.820137
539.819951	26.588197
540.172591	50.051345
540.525187	8.788567
540.877741	-43.801248
541.230253	3.934123
541.582722	25.779123
541.935148	-21.956248
542.287532	-72.118840
542.639873	-57.555507
542.992172	-5.774766
543.344427	-41.374025
543.696641	0.697826
544.048811	-0.111248
544.400939	-18.719951
544.753024	-4.156618
545.105066	-22.765322
545.457066	0.697826
545.809023	-13.056433
546.160937	-40.564951
546.512808	67.850975
546.864636	0.697826
547.216422	24.970049
547.568165	10.406715
547.919865	12.833937
548.271522	-16.292729
548.623136	18.497456
548.974707	-14.674581
549.326236	39.533382
549.677721	79.178012
550.029164	75.941715
550.380563	54.096715
550.731920	95.359493
551.083233	29.824493
551.434504	89.695975
551.785731	75.132641
552.136916	120.440789
552.488057	72.705419
552.839156	100.213937
553.190211	109.922826
553.541223	119.631715
553.892193	199.730049
554.243119	172.221530
554.594002	181.930419
554.944841	169.794308
555.295638	257.174308
555.646391	238.565604
555.997101	257.983382
556.347768	302.482456
556.698392	319.473012
557.048972	351.026900
557.399510	364.781160
557.750004	361.544863
558.100454	421.416345
558.450862	374.490049
558.801226	457.015604
559.151546	481.287826
559.501824	538.732086
559.852058	499.896530
560.202248	604.267086
560.552395	526.595975
560.902499	552.486345
561.252560	602.648937
561.602576	685.983567
561.952550	646.338937
562.302480	668.993012
562.652366	715.110234
563.002209	777.408937
563.352009	788.735975
563.701765	836.471345
564.051477	844.562086
564.401146	894.724678
564.750771	917.378752
565.100353	974.823012
565.449891	940.032826
565.799385	1021.749308
566.148836	1063.012086
566.498243	1134.210604
566.847607	1160.100975
567.196927	1190.036715
567.546203	1176.282456
567.895435	1207.027271
568.244624	1248.290049
568.593768	1279.034863
568.942870	1241.817456
569.291927	1390.687086
569.640940	1397.968752
569.989910	1374.505604
570.338836	1363.987641
570.687718	1422.240975
571.036557	1418.195604
571.385351	1534.702271
571.734101	1506.384678
572.082808	1444.085975
572.431471	1431.949863
572.780089	1509.620975
573.128664	1509.620975
573.477195	1502.339308
573.825682	1555.738197
574.174125	1515.284493
574.522524	1498.293937
574.870879	1521.757086
575.219189	1512.048197
575.567456	1510.430049
575.915679	1448.940419
576.263858	1485.348752
576.611992	1479.685234
576.960083	1380.978197
577.308129	1440.040604
577.656131	1330.815604
578.004089	1366.414863
578.352003	1295.216345
578.699873	1279.034863
579.047698	1241.817456
579.395479	1252.335419
579.743217	1274.180419
580.090909	1266.089678
580.438558	1245.053752
580.786162	1170.618937
581.133722	1094.565975
581.481238	1173.046160
581.828709	1147.964863
582.176136	1148.773938
582.523519	1153.628382
582.870857	1199.745604
583.218151	1105.083937
583.565400	1060.584863
583.912605	1014.467641
584.259766	1077.575419
584.606882	1024.985604
584.953954	1054.112271
585.300981	997.477086
585.647964	990.195419
585.994902	930.323937
586.341796	868.834308
586.688646	943.269123
587.035450	927.896715
587.382210	929.514863
587.728926	807.344678
588.075597	862.361715
588.422223	856.698197
588.768805	862.361715
589.115342	918.996900
589.461835	762.036530
589.808282	813.008197
590.154685	825.953382
590.501044	741.000604
590.847357	760.418382
591.193626	766.081900
591.539851	704.592271
591.886030	756.373012
592.232165	656.047826
592.578255	723.200975
592.924300	698.119678
593.270300	682.747271
593.616255	668.183937
593.962166	708.637641
594.308032	647.148012
594.653852	624.493937
594.999628	656.047826
595.345359	584.849308
595.691045	592.940049
596.036686	606.694308
596.382283	591.321900
596.727834	593.749123
597.073340	545.204678
597.418801	601.030789
597.764217	561.386160
598.109589	597.794493
598.454915	538.732086
598.800196	577.567641
599.145432	576.758567
599.490623	534.686715
599.835768	571.095049
600.180869	484.524123
600.525925	482.905975
600.870935	501.514678
601.215900	469.151715
601.560820	432.743382
601.905695	477.242456
602.250525	444.070419
602.595309	443.261345
602.940048	431.934308
603.284742	425.461715
603.629390	445.688567
603.973994	440.025049
604.318552	401.998567
604.663064	409.280234
605.007532	356.690419
605.351954	397.953197
605.696330	379.344493
606.040661	331.609123
606.384947	385.817086
606.729188	362.353938
607.073383	342.127086
607.417532	344.554308
607.761636	334.036345
608.105695	315.427641
608.449708	300.864308
608.793676	325.945604
609.137598	364.781160
609.481474	338.890789
609.825305	341.318012
610.169091	314.618567
610.512831	304.909678
610.856525	305.718752
611.200174	358.308567
611.543777	303.291530
611.887334	322.709308
612.230846	326.754678
612.574312	245.847271
612.917733	292.773567
613.261107	286.300975
613.604436	296.009863
613.947720	298.437086
614.290957	277.401160
614.634149	224.002271
614.977295	271.737641
615.320395	283.873752
615.663450	227.238567
616.006458	251.510789
616.349421	242.610975
616.692338	250.701715
617.035209	223.193197
617.378034	177.075975
617.720813	173.030604
618.063546	181.121345
618.406234	202.966345
618.748875	275.783012
619.091471	262.028752
619.434020	182.739493
619.776524	181.121345
620.118982	209.438937
620.461393	258.792456
620.803759	191.639308
621.146078	180.312271
621.488351	201.348197
621.830579	181.121345
622.172760	207.011715
622.514895	228.047641
622.856984	144.713012
623.199027	140.667641
623.541024	202.157271
623.882974	194.875604
624.224878	147.140234
624.566737	154.421900
624.908549	166.558012
625.250314	224.811345
625.592034	206.202641
625.933707	130.149678
626.275334	196.493752
626.616914	89.695975
626.958449	92.932271
627.299937	82.414308
627.641378	157.658197
627.982774	107.495604
628.324123	124.486160
628.665425	125.295234
629.006681	165.748937
629.347891	67.850975
629.689055	84.032456
630.030171	143.903937
630.371242	131.767826
630.712266	118.013567
631.053243	155.230975
631.394174	118.013567
631.735059	103.450234
632.075897	93.741345
632.416688	125.295234
632.757433	104.259308
633.098131	54.905789
633.438783	88.077826
633.779388	58.142086
634.119946	50.860419
634.460458	79.987086
634.800923	66.232826
635.141342	103.450234
635.481713	82.414308
635.822038	37.106160
636.162317	113.968197
636.502548	99.404863
636.842733	101.832086
637.182871	34.678937
637.522963	50.860419
637.863007	71.896345
638.203005	86.459678
638.542956	62.996530
638.882860	26.588197
639.222717	71.087271
639.562528	45.196900
639.902291	113.159123
640.242008	57.333012
640.581677	122.868012
640.921300	80.796160
641.260876	27.397271
641.600405	74.323567
641.939887	79.987086
642.279322	47.624123
642.618710	88.077826
642.958050	87.268752
643.297344	65.423752
643.636591	35.488012
643.975791	40.342456
644.314944	42.769678
644.654049	75.132641
644.993108	70.278197
645.332119	86.459678
645.671083	36.297086
646.010000	86.459678
646.348870	91.314123
646.687693	18.497456
647.026468	-1.729396
647.365197	28.206345
647.703878	123.677086
648.042511	66.232826
648.381098	66.232826
648.719637	62.187456
649.058129	54.096715
649.396574	12.024863
649.734971	45.196900
650.073321	16.879308
650.411624	64.614678
650.749879	24.160975
651.088087	62.187456
651.426248	23.351900
651.764361	68.660049
652.102427	29.824493
652.440445	23.351900
652.778416	20.115604
653.116339	43.578752
653.454215	33.869863
653.792043	46.815049
654.129824	37.915234
654.467557	10.406715
654.805243	88.886900
655.142881	18.497456
655.480472	20.924678
655.818015	-57.555507
656.155510	65.423752
656.492958	59.760234
656.830358	59.760234
657.167711	-30.856063
657.505015	24.160975
657.842273	72.705419
658.179482	36.297086
658.516644	8.788567
658.853758	20.115604
659.190824	21.733752
659.527842	10.406715
659.864813	49.242271
660.201736	20.115604
660.538611	13.643012
660.875438	44.387826
661.212218	36.297086
661.548950	84.032456
661.885633	51.669493
662.222269	33.060789
662.558857	58.142086
662.895397	27.397271
663.231889	37.915234
663.568334	-21.956248
663.904730	59.760234
664.241078	26.588197
664.577378	-19.529025
664.913631	7.979493
665.249835	1.506900
665.585991	53.287641
665.922099	50.051345
666.258159	-2.538470
666.594171	33.060789
666.930135	-27.619766
667.266051	-26.001618
667.601919	44.387826
667.937738	20.115604
668.273510	26.588197
668.609233	66.232826
668.944908	31.442641
669.280535	-16.292729
669.616114	-17.910877
669.951644	89.695975
670.287126	5.552271
670.622560	29.015419
670.957946	61.378382
671.293283	-21.147174
671.628572	29.824493
671.963813	-6.583840
672.299006	-30.046988
672.634150	27.397271
672.969245	16.070234
673.304293	17.688382
673.639291	7.170419
673.974242	-72.927914
674.309144	24.970049
674.643998	-0.111248
674.978803	25.779123
675.313560	5.552271
675.648268	14.452086
675.982928	77.559863
676.317539	16.879308
676.652101	79.987086
676.986615	23.351900
677.321081	-9.011063
677.655498	58.142086
677.989866	-9.820137
678.324186	14.452086
678.658457	33.869863
678.992680	11.215789
679.326854	-3.347544
679.660979	44.387826
679.995055	2.315975
680.329083	-11.438285
680.663062	-13.865507
680.996993	38.724308
681.330874	3.934123
681.664707	58.951160
681.998491	101.023012
682.332227	-21.147174
682.665913	12.024863
682.999551	-9.011063
683.333140	-77.782359
683.666680	17.688382
684.000171	10.406715
684.333613	-12.247359
684.667006	-17.101803
685.000351	8.788567
685.333646	-17.101803
685.666893	24.970049
686.000091	68.660049
686.333239	-13.056433
686.666339	7.979493
686.999390	33.060789
687.332391	1.506900
687.665344	-9.011063
687.998247	-3.347544
688.331102	-24.383470
688.663907	-17.910877
688.996664	9.597641
689.329371	2.315975
689.662029	23.351900
689.994638	-15.483655
690.327198	-27.619766
690.659708	-12.247359
690.992170	64.614678
691.324582	33.060789
691.656945	-4.965692
691.989259	41.151530
692.321524	33.060789
692.653739	-0.111248
692.985905	-5.774766
693.318022	-0.111248
693.650089	20.115604
693.982107	2.315975
694.314076	-44.610322
694.645996	-38.946803
694.977866	33.060789
695.309686	13.643012
695.641458	9.597641
695.973180	-21.956248
696.304852	12.024863
696.636475	15.261160
696.968049	-0.920322
697.299573	-15.483655
697.631047	-79.400507
697.962472	-34.901433
698.293848	35.488012
698.625174	-42.992174
698.956451	-44.610322
699.287678	25.779123
699.618855	34.678937
699.949983	-51.891988
700.281061	-2.538470
700.612089	24.970049
700.943068	7.170419
701.273998	20.115604
701.604877	-21.956248
701.935707	4.743197
702.266487	-2.538470
702.597218	47.624123
702.927899	24.160975
703.258530	9.597641
703.589111	-2.538470
703.919642	15.261160
704.250124	25.779123
704.580556	-21.956248
704.910938	8.788567
705.241270	-3.347544
705.571553	16.070234
705.901785	-33.283285
706.231968	40.342456
706.562101	-24.383470
706.892184	-21.147174
707.222216	-6.583840
707.552199	-19.529025
707.882132	-12.247359
708.212016	34.678937
708.541849	58.142086
708.871632	18.497456
709.201365	-3.347544
709.531048	-8.201988
709.860681	54.096715
710.190264	5.552271
710.519796	3.934123
710.849279	50.860419
711.178712	8.788567
711.508094	-10.629211
711.837427	2.315975
712.166709	4.743197
712.495941	24.160975
712.825123	-9.011063
713.154255	13.643012
713.483336	15.261160
713.812367	-5.774766
714.141348	39.533382
714.470279	47.624123
714.799159	-19.529025
715.127990	-23.574396
715.456769	33.060789
715.785499	-4.965692
716.114178	-11.438285
716.442807	10.406715
716.771385	26.588197
717.099914	-10.629211
717.428391	-51.891988
717.756819	-17.101803
718.085195	-19.529025
718.413522	0.697826
718.741798	40.342456
719.070023	44.387826
719.398198	29.015419
719.726323	-31.665137
720.054397	-12.247359
720.382420	37.915234
720.710393	27.397271
721.038316	25.779123
721.366188	-22.765322
721.694009	-3.347544
722.021779	19.306530
722.349499	-14.674581
722.677169	3.934123
723.004787	-0.111248
723.332355	-17.910877
723.659873	25.779123
723.987339	-8.201988
724.314755	22.542826
724.642120	44.387826
724.969435	20.115604
725.296699	-8.201988
725.623911	-26.810692
725.951074	17.688382
726.278185	9.597641
726.605245	61.378382
726.932255	54.096715
727.259214	-16.292729
727.586122	52.478567
727.912979	7.170419
728.239785	40.342456
728.566540	37.915234
728.893245	-21.147174
729.219898	-21.956248
729.546501	24.970049
729.873052	65.423752
730.199552	38.724308
730.526002	26.588197
730.852400	45.196900
731.178748	-50.273840
731.505044	18.497456
731.831290	68.660049
732.157484	20.115604
732.483627	-45.419396
732.809719	6.361345
733.135760	-21.147174
733.461750	33.869863
733.787688	-29.237914
734.113576	2.315975
734.439412	3.934123
734.765197	-12.247359
735.090931	-20.338100
735.416614	-30.046988
735.742245	-21.956248
736.067825	-14.674581
736.393354	-21.956248
736.718832	-21.956248
737.044258	-23.574396
737.369633	-8.201988
737.694957	-34.092359
738.020229	-34.901433
738.345450	-34.901433
738.670619	29.015419
738.995738	19.306530
739.320804	-9.011063
739.645820	1.506900
739.970784	-4.156618
740.295696	-43.801248
740.620557	-36.519581
740.945366	2.315975
741.270124	-106.099951
741.594831	-26.810692
741.919486	-25.192544
742.244089	18.497456
742.568641	-50.273840
742.893141	-4.156618
743.217590	-24.383470
743.541987	-22.765322
743.866332	1.506900
744.190626	-0.111248
744.514868	-13.056433
744.839058	43.578752
745.163197	36.297086
745.487284	4.743197
745.811320	24.160975
746.135303	-20.338100
746.459235	2.315975
746.783115	33.869863
747.106944	-26.001618
747.430720	-17.101803
747.754445	-20.338100
748.078118	1.506900
748.401739	-6.583840
748.725308	33.060789
749.048825	-38.137729
749.372291	34.678937
749.695705	-3.347544
750.019066	-8.201988
750.342376	-4.965692
750.665634	37.915234
750.988840	18.497456
751.311994	23.351900
751.635096	14.452086
751.958146	-8.201988
752.281143	-38.137729
752.604089	-8.201988
752.926983	-29.237914
753.249825	-2.538470
753.572615	-26.001618
753.895352	-24.383470
754.218038	21.733752
754.540671	24.970049
754.863252	-21.147174
755.185781	6.361345
755.508258	-57.555507
755.830683	9.597641
756.153056	-21.147174
756.475376	-8.201988
756.797644	-21.147174
757.119860	-12.247359
757.442023	-31.665137
757.764135	17.688382
758.086194	24.970049
758.408201	37.915234
758.730155	12.024863
759.052057	-26.810692
759.373907	-23.574396
759.695704	-55.128285
760.017449	3.934123
760.339142	-0.920322
760.660782	-16.292729
760.982370	-35.710507
761.303905	12.833937
761.625388	-3.347544
761.946818	33.869863
762.268196	-5.774766
762.589521	-0.111248
762.910794	19.306530
763.232015	0.697826
763.553182	40.342456
763.874298	7.979493
764.195360	-17.910877
764.516370	15.261160
764.837328	-7.392914
765.158233	45.196900
765.479085	-39.755877
765.799885	-55.128285
766.120631	34.678937
766.441326	-13.056433
766.761967	-26.810692
767.082556	19.306530
767.403092	-25.192544
767.723575	24.970049
768.044006	-13.865507
768.364384	-13.865507
768.684709	-81.827729
769.004981	23.351900
769.325200	-36.519581
769.645367	14.452086
769.965481	-13.056433
770.285541	41.151530
770.605549	-23.574396
770.925504	-6.583840
771.245407	22.542826
771.565256	-9.820137
771.885052	-16.292729
772.204795	-19.529025
772.524486	-10.629211
772.844123	-38.946803
773.163708	-21.147174
773.483239	-26.810692
773.802717	-16.292729
774.122142	2.315975
774.441515	-4.156618
774.760834	15.261160
775.080100	1.506900
775.399313	41.960604
775.718473	-48.655692
776.037579	-17.910877
776.356633	-2.538470
776.675633	-0.111248
776.994580	39.533382
777.313474	-58.364581
777.632315	25.779123
777.951103	21.733752
778.269837	-11.438285
778.588518	-35.710507
778.907146	-14.674581
779.225720	25.779123
779.544242	13.643012
779.862709	36.297086
780.181124	-34.901433
780.499485	48.433197
780.817793	-76.973285
781.136047	7.979493
781.454248	-8.201988
781.772396	-35.710507
782.090490	15.261160
782.408531	33.869863
782.726518	-17.910877
783.044452	-16.292729
783.362333	-9.820137
783.680159	2.315975
783.997933	34.678937
784.315653	18.497456
784.633319	-9.820137
784.950932	-5.774766
785.268491	29.824493
785.585996	-40.564951
785.903448	-24.383470
786.220847	-17.101803
786.538191	36.297086
786.855482	40.342456
787.172720	-81.827729
787.489903	-34.901433
787.807033	-55.128285
788.124110	57.333012
788.441132	46.005975
788.758101	-47.846618
789.075016	54.096715
789.391877	-43.801248
789.708685	6.361345
790.025438	-7.392914
790.342138	-2.538470
790.658784	-37.328655
790.975376	37.915234
791.291915	4.743197
791.608399	-16.292729
791.924830	-41.374025
792.241206	-10.629211
792.557529	-22.765322
792.873798	-12.247359
793.190012	-68.073470
793.506173	-15.483655
793.822280	-4.156618
794.138333	-17.101803
794.454332	-18.719951
794.770277	-0.920322
795.086167	13.643012
795.402004	6.361345
795.717787	58.951160
796.033515	-21.147174
796.349190	-14.674581
796.664810	20.924678
796.980376	-12.247359
797.295888	-18.719951
797.611346	-59.982729
797.926750	-22.765322
798.242099	-18.719951
798.557394	47.624123
798.872635	36.297086
799.187822	40.342456
799.502955	-20.338100
799.818033	16.070234
800.133057	8.788567
800.448027	-13.056433
800.762942	1.506900
801.077803	-9.011063
801.392610	16.879308
801.707362	-61.600877
802.022060	-13.056433
802.336703	23.351900
802.651292	-26.001618
802.965827	-46.228470
803.280307	-25.192544
803.594733	54.096715
803.909104	-30.856063
804.223421	1.506900
804.537684	17.688382
804.851891	2.315975
805.166045	-33.283285
805.480143	-9.820137
805.794188	-7.392914
806.108177	-27.619766
806.422112	22.542826
806.735993	12.833937
807.049818	20.924678
807.363590	15.261160
807.677306	-70.500692
807.990968	3.125049
808.304575	-5.774766
808.618128	-9.011063
808.931625	21.733752
809.245068	-38.137729
809.558457	13.643012
809.871790	20.924678
810.185069	-39.755877
810.498293	-40.564951
810.811462	-35.710507
811.124576	50.051345
811.437636	6.361345
811.750640	-27.619766
812.063590	-16.292729
812.376485	20.115604
812.689325	-21.956248
813.002110	17.688382
813.314840	36.297086
813.627516	-5.774766
813.940136	7.170419
814.252701	75.941715
814.565212	6.361345
814.877667	7.979493
815.190067	-8.201988
815.502413	7.979493
815.814703	20.115604
816.126938	37.915234
816.439118	-21.956248
816.751243	41.151530
817.063313	43.578752
817.375328	-18.719951
817.687287	-20.338100
817.999192	-23.574396
818.311041	-55.937359
818.622835	-60.791803
818.934574	4.743197
819.246258	2.315975
819.557887	-22.765322
819.869460	-39.755877
820.180978	8.788567
820.492441	-30.046988
820.803848	27.397271
821.115200	7.170419
821.426497	-30.856063
821.737739	-55.937359
822.048925	44.387826
822.360056	-67.264396
822.671131	12.024863
822.982151	27.397271
823.293116	-36.519581
823.604025	-18.719951
823.914879	22.542826
824.225677	-23.574396
824.536420	53.287641
824.847107	-19.529025
825.157739	-26.810692
825.468315	-38.137729
825.778836	-26.810692
826.089301	2.315975
826.399711	17.688382
826.710065	2.315975
827.020363	-35.710507
827.330606	-25.192544
827.640794	8.788567
827.950925	30.633567
828.261001	21.733752
828.571022	-42.992174
828.880986	-9.011063
829.190895	-27.619766
829.500749	42.769678
829.810546	0.697826
830.120288	-42.183100
830.429974	17.688382
830.739604	-31.665137
831.049179	-58.364581
831.358697	18.497456
831.668160	7.170419
831.977567	24.970049
832.286918	28.206345
832.596213	-13.056433
832.905453	-33.283285
833.214636	-42.992174
833.523764	58.142086
833.832836	-12.247359
834.141851	-43.801248
834.450811	-88.300322
834.759715	-50.273840
835.068563	-24.383470
835.377355	27.397271
835.686091	-34.092359
835.994770	-48.655692
836.303394	0.697826
836.611962	29.824493
836.920473	15.261160
837.228929	-13.865507
837.537328	66.232826
837.845672	7.170419
838.153959	19.306530
838.462190	12.024863
838.770365	24.160975
839.078483	-47.037544
839.386546	-11.438285
839.694552	-50.273840
840.002502	-16.292729
840.310396	7.979493
840.618233	37.106160
840.926015	-64.028100
841.233739	12.024863
841.541408	-49.464766
841.849020	-8.201988
842.156576	-72.118840
842.464076	-36.519581
842.771519	-33.283285
843.078906	-17.910877
843.386237	67.041900
843.693511	-11.438285
844.000729	6.361345
844.307890	-13.865507
844.614995	-17.101803
844.922043	20.115604
845.229035	20.115604
845.535970	0.697826
845.842849	-36.519581
846.149671	-31.665137
846.456437	-4.965692
846.763146	-0.111248
847.069799	10.406715
847.376395	11.215789
847.682934	-9.820137
847.989417	-61.600877
848.295843	-28.428840
848.602213	7.979493
848.908526	-61.600877
849.214782	16.879308
849.520981	-26.810692
849.827124	-4.965692
850.133210	-5.774766
850.439239	38.724308
850.745212	7.979493
851.051128	-16.292729
851.356987	-4.965692
851.662789	-51.082914
851.968534	-7.392914
852.274223	20.924678
852.579854	23.351900
852.885429	29.015419
853.190947	17.688382
853.496408	14.452086
853.801812	-14.674581
854.107160	59.760234
854.412450	-75.355137
854.717683	8.788567
855.022859	-14.674581
855.327979	24.160975
855.633041	19.306530
855.938046	33.060789
856.242995	-49.464766
856.547886	43.578752
856.852720	14.452086
857.157497	-17.101803
857.462217	32.251715
857.766880	42.769678
858.071486	-9.011063
858.376035	26.588197
858.680526	-15.483655
858.984961	28.206345
859.289338	-35.710507
859.593658	25.779123
859.897921	-9.011063
860.202126	28.206345
860.506275	3.125049
860.810366	16.070234
861.114399	-0.920322
861.418376	-45.419396
861.722295	-12.247359
862.026157	5.552271
862.329961	12.024863
862.633709	12.024863
862.937398	27.397271
863.241031	41.151530
863.544606	-17.101803
863.848124	-9.820137
864.151584	0.697826
864.454987	19.306530
864.758332	49.242271
865.061620	9.597641
865.364850	3.934123
865.668023	-33.283285
865.971138	61.378382
866.274196	-13.865507
866.577196	-9.011063
866.880139	3.934123
867.183024	20.115604
867.485852	17.688382
867.788622	-17.101803
868.091334	-13.056433
868.393989	37.106160
868.696586	-13.865507
868.999125	-82.636803
869.301607	26.588197
869.604031	-12.247359
869.906397	-52.701063
870.208706	-21.956248
870.510957	-23.574396
870.813150	-42.992174
871.115285	12.833937
871.417363	19.306530
871.719382	53.287641
872.021344	5.552271
872.323248	33.869863
872.625094	-12.247359
872.926883	-60.791803
873.228613	-24.383470
873.530286	-23.574396
873.831900	9.597641
874.133457	-40.564951
874.434956	10.406715
874.736397	-41.374025
875.037780	-65.646248
875.339105	-18.719951
875.640371	-41.374025
875.941580	2.315975
876.242731	-35.710507
876.543824	-26.810692
876.844859	19.306530
877.145835	7.170419
877.446754	-70.500692
877.747614	67.850975
878.048417	-13.056433
878.349161	-13.865507
878.649847	-0.111248
878.950475	12.833937
879.251045	12.024863
879.551556	5.552271
879.852010	23.351900
880.152405	3.934123
880.452741	-10.629211
880.753020	-6.583840
881.053240	-22.765322
881.353402	18.497456
881.653506	-21.956248
881.953552	-46.228470
882.253539	16.879308
882.553467	7.170419
882.853338	13.643012
883.153150	11.215789
883.452903	13.643012
883.752598	31.442641
884.052235	-9.011063
884.351814	1.506900
884.651333	-6.583840
884.950795	27.397271
885.250198	58.142086
885.549542	-17.101803
885.848828	-23.574396
886.148055	17.688382
886.447224	-5.774766
886.746335	0.697826
887.045386	4.743197
887.344379	-7.392914
887.643314	13.643012
887.942190	12.833937
888.241007	12.024863
888.539766	12.024863
888.838465	27.397271
889.137107	42.769678
889.435689	16.879308
889.734213	-17.910877
890.032678	11.215789
890.331085	29.824493
