wavelength	0.005221

178.106480	-49.353519
178.493382	40.703168
178.880256	40.703168
179.267103	26.139835
179.653922	-17.550165
180.040713	-51.531276
180.427476	2.676687
180.814211	-2.177758
181.200918	21.285390
181.587598	-50.722202
181.974250	26.139835
182.360873	60.930020
182.747469	5.103909
183.134037	-16.741091
183.520577	35.848724
183.907089	-61.240165
184.293573	-4.604980
184.680029	36.657798
185.066457	-27.259054
185.452857	30.994279
185.839229	38.275946
186.225573	11.576502
186.611889	91.674835
186.998176	9.149279
187.384436	1.867613
187.770668	4.294835
188.156871	-24.022758
188.543046	33.421502
188.929193	-36.158869
189.315312	-11.886647
189.701403	-18.359239
190.087466	-17.550165
190.473500	-32.113498
190.859506	-29.686276
191.245484	-51.531276
191.631434	-32.113498
192.017355	-32.922573
192.403248	11.576502
192.789113	-2.986832
193.174949	24.521687
193.560757	29.376131
193.946537	-12.695721
194.332288	-24.831832
194.718011	12.385576
195.103705	43.130390
195.489371	39.085020
195.875009	-26.449980
196.260618	-1.368684
196.646199	-46.676832
197.031751	-41.013313
197.417275	43.939465
197.802771	-11.077573
198.188237	2.676687
198.573676	12.385576
198.959085	-58.812943
199.344466	-28.068128
199.729819	-25.640906
200.115143	-35.349795
200.500438	18.858168
200.885705	18.858168
201.270943	14.003724
201.656152	5.103909
202.041333	-7.841276
202.426485	19.667242
202.811608	33.421502
203.196703	61.739094
203.581769	6.722057
203.966806	-48.294980
204.351814	22.903539
204.736794	-4.604980
205.121745	58.502798
205.506667	-11.886647
205.891560	-9.459424
206.276424	5.103909
206.661260	-6.223128
207.046066	-3.795906
207.430844	24.521687
207.815593	-26.449980
208.200313	2.676687
208.585003	-13.504795
208.969665	-21.595535
209.354299	55.266502
209.738903	-9.459424
210.123478	-11.077573
210.508024	-32.922573
210.892541	-36.158869
211.277029	-58.003869
211.661488	-33.731647
212.045918	22.903539
212.430318	89.247613
212.814690	-7.032202
213.199033	-2.986832
213.583346	-28.068128
213.967631	-0.559610
214.351886	18.858168
214.736112	-46.676832
215.120309	-58.003869
215.504476	0.249465
215.888615	-15.122943
216.272724	26.948909
216.656804	5.103909
217.040854	-6.223128
217.424876	-3.795906
217.808868	39.085020
218.192830	-60.431091
218.576764	-4.604980
218.960668	-36.158869
219.344543	16.430946
219.728388	-24.022758
220.112204	-15.932017
220.495991	-5.414054
220.879748	-9.459424
221.263476	-5.414054
221.647174	-5.414054
222.030843	-19.168313
222.414482	-14.313869
222.798092	6.722057
223.181672	-39.395165
223.565223	-19.168313
223.948744	14.003724
224.332236	-32.113498
224.715698	-11.077573
225.099131	-27.259054
225.482534	-15.122943
225.865907	64.975390
226.249251	8.340205
226.632565	12.385576
227.015850	43.939465
227.399104	1.058539
227.782329	-54.767573
228.165525	8.340205
228.548691	-40.204239
228.931827	-19.168313
229.314933	-17.550165
229.698009	-53.958498
230.081056	15.621872
230.464073	-41.013313
230.847060	14.812798
231.230017	9.149279
231.612944	-19.168313
231.995842	19.667242
232.378709	12.385576
232.761547	16.430946
233.144355	2.676687
233.527133	-32.922573
233.909881	-12.695721
234.292599	15.621872
234.675287	22.903539
235.057945	43.130390
235.440574	-20.786461
235.823172	-4.604980
236.205740	-62.049239
236.588278	-12.695721
236.970786	29.376131
237.353264	4.294835
237.735712	10.767427
238.118130	49.602983
238.500517	14.812798
238.882875	52.030205
239.265202	18.858168
239.647499	-13.504795
240.029767	30.185205
240.412003	1.058539
240.794210	-16.741091
241.176387	-16.741091
241.558533	30.185205
241.940649	50.412057
242.322734	10.767427
242.704790	17.240020
243.086815	-32.922573
243.468810	18.049094
243.850774	20.476316
244.232709	-32.113498
244.614612	-1.368684
244.996486	-22.404610
245.378329	8.340205
245.760142	22.094465
246.141924	34.230576
246.523676	31.803353
246.905397	-5.414054
247.287088	-41.013313
247.668748	5.103909
248.050378	34.230576
248.431978	38.275946
248.813547	-35.349795
249.195085	-20.786461
249.576593	-32.922573
249.958070	-26.449980
250.339517	69.829835
250.720933	-23.213684
251.102318	-18.359239
251.483673	30.994279
251.864997	-18.359239
252.246291	-12.695721
252.627554	-58.812943
253.008786	33.421502
253.389987	-27.259054
253.771158	-4.604980
254.152298	-35.349795
254.533408	4.294835
254.914486	-39.395165
255.295534	-62.049239
255.676551	-47.485906
256.057537	-19.977387
256.438492	-13.504795
256.819417	-45.058684
257.200310	9.149279
257.581173	1.867613
257.962005	-2.177758
258.342806	-15.122943
258.723576	-49.104054
259.104315	9.149279
259.485023	-60.431091
259.865700	31.803353
260.246347	-6.223128
260.626962	35.039650
261.007546	42.321316
261.388099	43.130390
261.768621	21.285390
262.149112	-13.504795
262.529573	43.939465
262.910002	3.485761
263.290399	16.430946
263.670766	-12.695721
264.051102	-12.695721
264.431406	-0.559610
264.811680	-41.822387
265.191922	10.767427
265.572133	-8.650350
265.952313	13.194650
266.332461	1.867613
266.712578	25.330761
267.092665	-11.077573
267.472719	58.502798
267.852743	26.948909
268.232735	35.039650
268.612696	-34.540721
268.992626	-3.795906
269.372524	30.994279
269.752391	-2.177758
270.132226	-2.986832
270.512030	52.030205
270.891803	-31.304424
271.271545	-23.213684
271.651255	-18.359239
272.030933	-2.177758
272.410580	-30.495350
272.790196	-24.022758
273.169780	18.049094
273.549332	-20.786461
273.928853	35.848724
274.308343	-40.204239
274.687800	19.667242
275.067227	21.285390
275.446622	1.867613
275.825985	-28.877202
276.205316	18.858168
276.584616	5.103909
276.963885	6.722057
277.343121	32.612427
277.722326	-40.204239
278.101499	-27.259054
278.480641	15.621872
278.859751	-2.177758
279.238829	-30.495350
279.617875	-26.449980
279.996890	-25.640906
280.375873	-29.686276
280.754824	10.767427
281.133743	46.366687
281.512631	-53.958498
281.891486	1.058539
282.270310	-45.058684
282.649102	50.412057
283.027862	-29.686276
283.406590	-66.903684
283.785286	9.958353
284.163950	9.958353
284.542582	7.531131
284.921183	77.111502
285.299751	11.576502
285.678287	13.194650
286.056792	-36.967943
286.435264	-9.459424
286.813704	14.812798
287.192112	-11.886647
287.570489	-48.294980
287.948833	10.767427
288.327145	8.340205
288.705425	22.903539
289.083672	-4.604980
289.461888	-28.877202
289.840071	-7.032202
290.218223	-22.404610
290.596342	-17.550165
290.974429	6.722057
291.352483	-5.414054
291.730506	-49.913128
292.108496	28.567057
292.486454	-0.559610
292.864379	-8.650350
293.242273	56.075576
293.620134	-78.230721
293.997963	-18.359239
294.375759	16.430946
294.753523	43.130390
295.131255	69.020761
295.508954	17.240020
295.886621	20.476316
296.264255	-11.077573
296.641857	29.376131
297.019427	-32.113498
297.396964	24.521687
297.774469	-10.268498
298.151941	-18.359239
298.529380	0.249465
298.906788	26.139835
299.284162	23.712613
299.661504	-16.741091
300.038814	-1.368684
300.416090	-27.259054
300.793335	43.130390
301.170546	-39.395165
301.547726	-24.022758
301.924872	1.058539
302.301986	50.412057
302.679067	4.294835
303.056115	24.521687
303.433131	0.249465
303.810114	-19.977387
304.187064	-32.113498
304.563982	18.049094
304.940866	-17.550165
305.317718	-45.058684
305.694537	43.939465
306.071324	0.249465
306.448077	-24.022758
306.824798	35.039650
307.201486	-28.877202
307.578141	-36.967943
307.954763	-69.330906
308.331352	27.757983
308.707908	-2.986832
309.084432	31.803353
309.460922	-29.686276
309.837379	-41.822387
310.213804	-17.550165
310.590195	14.003724
310.966554	-24.022758
311.342879	-42.631461
311.719172	-59.622017
312.095431	26.139835
312.471657	-45.867758
312.847851	-19.977387
313.224011	-22.404610
313.600138	40.703168
313.976232	31.803353
314.352292	-12.695721
314.728320	22.094465
315.104314	-14.313869
315.480275	-24.831832
315.856203	-21.595535
316.232098	19.667242
316.607960	-11.077573
316.983788	-3.795906
317.359583	32.612427
317.735345	-23.213684
318.111073	38.275946
318.486769	15.621872
318.862430	23.712613
319.238059	-31.304424
319.613654	-24.831832
319.989216	-49.104054
320.364744	-53.958498
320.740239	-38.586091
321.115701	-7.032202
321.491129	21.285390
321.866524	-9.459424
322.241885	31.803353
322.617213	43.130390
322.992507	-7.032202
323.367768	-28.068128
323.742995	20.476316
324.118189	20.476316
324.493349	9.958353
324.868475	20.476316
325.243568	5.103909
325.618628	19.667242
325.993654	9.958353
326.368646	-3.795906
326.743604	-28.068128
327.118529	-15.932017
327.493421	16.430946
327.868278	-29.686276
328.243102	-23.213684
328.617892	-56.385721
328.992648	-9.459424
329.367371	-13.504795
329.742060	-37.777017
330.116715	36.657798
330.491336	44.748539
330.865924	12.385576
331.240477	5.912983
331.614997	12.385576
331.989483	43.130390
332.363935	26.139835
332.738354	33.421502
333.112738	-50.722202
333.487088	-7.841276
333.861405	23.712613
334.235687	-11.077573
334.609936	1.867613
334.984150	11.576502
335.358331	20.476316
335.732478	30.994279
336.106590	29.376131
336.480669	12.385576
336.854713	-14.313869
337.228724	-28.068128
337.602700	-32.922573
337.976642	4.294835
338.350550	-28.877202
338.724424	7.531131
339.098264	22.094465
339.472070	39.894094
339.845842	29.376131
340.219579	-15.122943
340.593282	17.240020
340.966951	-30.495350
341.340586	-4.604980
341.714186	70.638909
342.087752	-6.223128
342.461284	-15.122943
342.834782	13.194650
343.208245	18.049094
343.581674	9.958353
343.955069	51.221131
344.328429	-8.650350
344.701755	-36.967943
345.075047	10.767427
345.448304	-2.177758
345.821526	42.321316
346.194715	-1.368684
346.567869	-22.404610
346.940988	-22.404610
347.314073	-5.414054
347.687123	37.466872
348.060139	-10.268498
348.433121	-31.304424
348.806067	20.476316
349.178980	-22.404610
349.551858	-15.932017
349.924701	-28.877202
350.297509	-32.922573
350.670283	22.094465
351.043023	-16.741091
351.415727	8.340205
351.788397	5.912983
352.161033	13.194650
352.533633	34.230576
352.906199	-7.841276
353.278731	31.803353
353.651227	-13.504795
354.023689	-2.986832
354.396116	3.485761
354.768508	-2.986832
355.140866	50.412057
355.513188	-15.932017
355.885476	-74.994424
356.257729	-15.932017
356.629947	37.466872
357.002130	18.049094
357.374279	20.476316
357.746392	0.249465
358.118471	4.294835
358.490514	-4.604980
358.862523	1.867613
359.234497	-2.986832
359.606436	-21.595535
359.978339	-37.777017
360.350208	35.039650
360.722042	4.294835
361.093841	13.194650
361.465604	-18.359239
361.837333	23.712613
362.209026	26.139835
362.580685	-33.731647
362.952308	16.430946
363.323896	-14.313869
363.695449	-8.650350
364.066967	-9.459424
364.438450	13.194650
364.809897	-5.414054
365.181310	14.003724
365.552687	21.285390
365.924028	-19.977387
366.295335	65.784465
366.666606	33.421502
367.037842	-12.695721
367.409043	24.521687
367.780209	-39.395165
368.151339	-12.695721
368.522434	-42.631461
368.893493	-15.932017
369.264517	-10.268498
369.635506	2.676687
370.006459	16.430946
370.377377	45.557613
370.748260	-4.604980
371.119107	14.003724
371.489918	14.003724
371.860694	-20.786461
372.231435	-4.604980
372.602140	25.330761
372.972809	25.330761
373.343444	-15.932017
373.714042	19.667242
374.084605	7.531131
374.455132	-11.886647
374.825624	64.166316
375.196080	-8.650350
375.566501	-53.958498
375.936885	-33.731647
376.307235	1.058539
376.677548	-34.540721
377.047826	-35.349795
377.418068	-23.213684
377.788275	-21.595535
378.158445	22.903539
378.528580	-49.104054
378.898679	26.948909
379.268743	-49.104054
379.638770	-2.177758
380.008762	5.103909
380.378718	34.230576
380.748638	17.240020
381.118523	1.867613
381.488371	-26.449980
381.858184	47.175761
382.227960	3.485761
382.597701	-50.722202
382.967406	-49.104054
383.337075	-34.540721
383.706708	-52.340350
384.076304	22.094465
384.445865	-3.795906
384.815390	45.557613
385.184879	-51.531276
385.554332	-36.158869
385.923749	-1.368684
386.293130	3.485761
386.662474	-49.104054
387.031783	15.621872
387.401055	-41.822387
387.770292	0.249465
388.139492	39.085020
388.508656	9.958353
388.877784	19.667242
389.246876	9.149279
389.615931	-41.013313
389.984950	1.058539
390.353933	-21.595535
390.722880	10.767427
391.091791	-48.294980
391.460665	-9.459424
391.829503	54.457427
392.198304	-9.459424
392.567070	-41.822387
392.935799	26.948909
393.304491	12.385576
393.673148	9.958353
394.041768	-11.077573
394.410351	-49.913128
394.778898	19.667242
395.147409	-24.831832
395.515883	13.194650
395.884321	-50.722202
396.252722	-29.686276
396.621087	-27.259054
396.989415	-21.595535
397.357707	14.003724
397.725962	-4.604980
398.094181	-15.122943
398.462363	-34.540721
398.830508	-15.122943
399.198617	21.285390
399.566689	45.557613
399.934725	-37.777017
400.302724	24.521687
400.670687	-2.986832
401.038612	18.858168
401.406501	-42.631461
401.774354	-20.786461
402.142169	-7.841276
402.509948	51.221131
402.877690	-9.459424
403.245396	11.576502
403.613064	39.894094
403.980696	-32.113498
404.348291	14.812798
404.715849	-12.695721
405.083370	-42.631461
405.450855	-16.741091
405.818303	25.330761
406.185713	-45.058684
406.553087	2.676687
406.920424	27.757983
407.287724	15.621872
407.654987	18.858168
408.022213	13.194650
408.389402	9.958353
408.756554	-9.459424
409.123669	-39.395165
409.490748	-2.177758
409.857789	-42.631461
410.224793	-26.449980
410.591760	-3.795906
410.958689	-19.168313
411.325582	-43.440535
411.692438	-4.604980
412.059256	64.166316
412.426038	42.321316
412.792782	6.722057
413.159489	3.485761
413.526159	-63.667387
413.892792	5.103909
414.259387	88.438539
414.625945	-18.359239
414.992466	-3.795906
415.358950	-4.604980
415.725396	-2.177758
416.091806	3.485761
416.458177	-1.368684
416.824512	-15.122943
417.190809	-26.449980
417.557069	-45.058684
417.923291	-25.640906
418.289476	-41.822387
418.655624	1.058539
419.021734	-33.731647
419.387807	-2.986832
419.753843	1.058539
420.119841	5.912983
420.485801	-20.786461
420.851724	43.130390
421.217609	-7.841276
421.583457	5.912983
421.949268	10.767427
422.315041	20.476316
422.680776	13.194650
423.046474	-3.795906
423.412134	-43.440535
423.777756	-24.831832
424.143341	21.285390
424.508888	35.848724
424.874398	-0.559610
425.239870	-19.168313
425.605304	1.867613
425.970701	-7.841276
426.336059	28.567057
426.701381	7.531131
427.066664	26.948909
427.431909	-52.340350
427.797117	26.139835
428.162287	1.058539
428.527419	-22.404610
428.892514	10.767427
429.257570	-0.559610
429.622589	-16.741091
429.987570	-62.049239
430.352513	-19.168313
430.717418	-52.340350
431.082285	29.376131
431.447114	-14.313869
431.811905	-40.204239
432.176659	39.085020
432.541374	-49.104054
432.906051	-9.459424
433.270691	-7.032202
433.635292	-55.576647
433.999855	30.185205
434.364380	1.867613
434.728867	32.612427
435.093317	35.848724
435.457728	11.576502
435.822100	22.903539
436.186435	-53.958498
436.550732	-44.249610
436.914990	-7.032202
437.279210	1.867613
437.643392	-12.695721
438.007536	-19.168313
438.371642	47.175761
438.735709	-15.122943
439.099739	-34.540721
439.463730	9.958353
439.827682	-10.268498
440.191597	4.294835
440.555473	-58.003869
440.919310	-6.223128
441.283110	-35.349795
441.646871	-38.586091
442.010593	-27.259054
442.374278	50.412057
442.737924	-8.650350
443.101531	72.257057
443.465100	-7.032202
443.828631	-24.831832
444.192123	23.712613
444.555577	-4.604980
444.918992	11.576502
445.282368	-84.703313
445.645707	7.531131
446.009006	-49.104054
446.372267	-15.932017
446.735490	30.185205
447.098674	5.912983
447.461819	-29.686276
447.824926	19.667242
448.187994	4.294835
448.551023	18.049094
448.914014	-22.404610
449.276966	-24.831832
449.639880	50.412057
450.002754	-10.268498
450.365590	-15.122943
450.728388	-60.431091
451.091146	59.311872
451.453866	7.531131
451.816547	-28.877202
452.179189	-9.459424
452.541793	-28.877202
452.904357	-2.986832
453.266883	5.103909
453.629370	-5.414054
453.991818	-21.595535
454.354227	-12.695721
454.716597	-65.285535
455.078929	25.330761
455.441221	-74.994424
455.803475	3.485761
456.165689	51.221131
456.527865	13.194650
456.890001	-57.194795
457.252099	-26.449980
457.614157	-49.104054
457.976177	35.848724
458.338157	-5.414054
458.700099	-5.414054
459.062001	30.994279
459.423864	-12.695721
459.785688	-70.949054
460.147473	-7.841276
460.509219	-16.741091
460.870926	13.194650
461.232593	-58.003869
461.594221	32.612427
461.955810	-14.313869
462.317360	33.421502
462.678871	34.230576
463.040342	-39.395165
463.401775	-21.595535
463.763167	-15.932017
464.124521	-24.022758
464.485835	9.958353
464.847110	-11.077573
465.208346	-20.786461
465.569542	22.094465
465.930699	-60.431091
466.291817	-49.913128
466.652895	-4.604980
467.013933	13.194650
467.374933	9.958353
467.735892	-15.932017
468.096813	26.139835
468.457694	22.903539
468.818535	28.567057
469.179337	-7.032202
469.540099	-47.485906
469.900822	-64.476461
470.261506	-24.022758
470.622149	-13.504795
470.982753	-24.022758
471.343318	-16.741091
471.703843	9.149279
472.064328	-40.204239
472.424774	-24.022758
472.785180	42.321316
473.145546	52.839279
473.505873	15.621872
473.866160	-44.249610
474.226407	1.867613
474.586615	5.103909
474.946783	13.194650
475.306911	55.266502
475.666999	-20.786461
476.027047	0.249465
476.387056	-41.822387
476.747025	-24.022758
477.106954	-17.550165
477.466843	20.476316
477.826692	52.839279
478.186502	18.858168
478.546271	-7.841276
478.906001	12.385576
479.265690	30.185205
479.625340	16.430946
479.984950	31.803353
480.344519	69.829835
480.704049	-33.731647
481.063539	-16.741091
481.422989	-19.977387
481.782398	-3.795906
482.141768	-41.822387
482.501098	12.385576
482.860387	-40.204239
483.219637	34.230576
483.578846	-12.695721
483.938015	-4.604980
484.297144	-25.640906
484.656233	-35.349795
485.015282	-15.122943
485.374291	13.194650
485.733259	9.149279
486.092187	-6.223128
486.451075	-12.695721
486.809923	14.003724
487.168730	-11.886647
487.527497	-24.831832
487.886224	-41.822387
488.244910	-19.168313
488.603557	-26.449980
488.962162	-49.913128
489.320728	-27.259054
489.679253	-7.032202
490.037738	28.567057
490.396182	8.340205
490.754586	-19.168313
491.112950	2.676687
491.471273	-49.913128
491.829555	-4.604980
492.187798	9.958353
492.545999	-5.414054
492.904160	35.039650
493.262281	39.085020
493.620361	11.576502
493.978401	-5.414054
494.336400	25.330761
494.694358	-23.213684
495.052276	-10.268498
495.410153	-28.877202
495.767990	1.867613
496.125786	27.757983
496.483541	-13.504795
496.841255	-15.932017
497.198929	-46.676832
497.556563	23.712613
497.914155	-8.650350
498.271707	-29.686276
498.629218	-4.604980
498.986688	-36.967943
499.344118	-52.340350
499.701506	-39.395165
500.058854	73.066131
500.416161	52.030205
500.773428	15.621872
501.130653	6.722057
501.487837	1.058539
501.844981	-46.676832
502.202084	-64.476461
502.559146	33.421502
502.916167	-1.368684
503.273146	42.321316
503.630085	-16.741091
503.986984	47.175761
504.343841	44.748539
504.700657	30.994279
505.057432	50.412057
505.414166	-24.022758
505.770858	-7.032202
506.127510	-24.831832
506.484121	-28.068128
506.840691	-4.604980
507.197219	-19.168313
507.553707	23.712613
507.910153	27.757983
508.266558	2.676687
508.622922	26.948909
508.979245	-35.349795
509.335527	19.667242
509.691767	-15.122943
510.047966	29.376131
510.404124	-29.686276
510.760241	-8.650350
511.116316	-15.122943
511.472350	48.793909
511.828343	-0.559610
512.184295	52.030205
512.540205	-24.022758
512.896073	-51.531276
513.251901	-3.795906
513.607687	33.421502
513.963431	13.194650
514.319135	6.722057
514.674796	12.385576
515.030417	-9.459424
515.385996	44.748539
515.741533	4.294835
516.097029	18.858168
516.452483	-38.586091
516.807896	-31.304424
517.163268	-23.213684
517.518597	15.621872
517.873886	-51.531276
518.229132	-32.922573
518.584337	25.330761
518.939501	-41.013313
519.294623	-16.741091
519.649703	3.485761
520.004742	-59.622017
520.359738	-15.932017
520.714694	-53.149424
521.069607	8.340205
521.424479	-20.786461
521.779309	59.311872
522.134097	-13.504795
522.488844	8.340205
522.843549	-0.559610
523.198211	73.066131
523.552833	-8.650350
523.907412	-0.559610
524.261949	-4.604980
524.616445	-21.595535
524.970899	28.567057
525.325311	17.240020
525.679681	-27.259054
526.034009	-7.032202
526.388295	-49.104054
526.742539	-66.903684
527.096742	-22.404610
527.450902	21.285390
527.805020	-48.294980
528.159096	2.676687
528.513131	-36.158869
528.867123	10.767427
529.221073	-2.177758
529.574981	-8.650350
529.928847	-5.414054
530.282671	27.757983
530.636453	15.621872
530.990193	-3.795906
531.343891	-33.731647
531.697546	-94.412202
532.051159	-22.404610
532.404730	9.958353
532.758259	9.958353
533.111746	-28.877202
533.465190	31.803353
533.818593	-14.313869
534.171952	47.984835
534.525270	27.757983
534.878545	-27.259054
535.231778	-11.886647
535.584969	-10.268498
535.938118	7.531131
536.291224	37.466872
536.644287	69.020761
536.997309	30.994279
537.350288	4.294835
537.703224	15.621872
538.056118	56.075576
538.408970	-41.822387
538.761779	2.676687
539.114546	-25.640906
539.467270	11.576502
539.819951	14.812798
540.172591	-2.986832
540.525187	-17.550165
540.877741	0.249465
541.230253	-51.531276
541.582722	-9.459424
541.935148	-58.812943
542.287532	-28.877202
542.639873	-54.767573
542.992172	-6.223128
543.344427	-45.058684
543.696641	14.812798
544.048811	2.676687
544.400939	38.275946
544.753024	3.485761
545.105066	26.139835
545.457066	-2.986832
545.809023	-36.158869
546.160937	-26.449980
546.512808	69.020761
546.864636	38.275946
547.216422	4.294835
547.568165	-5.414054
547.919865	-25.640906
548.271522	-17.550165
548.623136	5.103909
548.974707	2.676687
549.326236	14.812798
549.677721	43.130390
550.029164	5.912983
550.380563	18.049094
550.731920	60.930020
551.083233	72.257057
551.434504	82.775020
551.785731	74.684279
552.136916	117.565205
552.488057	46.366687
552.839156	127.274094
553.190211	38.275946
553.541223	116.756131
553.892193	125.655946
554.243119	138.601131
554.594002	32.612427
554.944841	138.601131
555.295638	182.291131
555.646391	211.417798
555.997101	255.107798
556.347768	245.398909
556.698392	263.198539
557.048972	277.761872
557.399510	300.415946
557.750004	293.943353
558.100454	299.606872
558.450862	319.024650
558.801226	323.879094
559.151546	356.242057
559.501824	416.113539
559.852058	374.041687
560.202248	369.996316
560.552395	381.323353
560.902499	409.640946
561.252560	434.722242
561.602576	488.121131
561.952550	450.903724
562.302480	475.175946
562.652366	471.130576
563.002209	517.247798
563.352009	440.385761
563.701765	542.329094
564.051477	510.775205
564.401146	527.765761
564.750771	522.102242
565.100353	522.911316
565.449891	600.582427
565.799385	544.756316
566.148836	571.455761
566.498243	583.591872
566.847607	598.964279
567.196927	557.701502
567.546203	559.319650
567.895435	574.692057
568.244624	613.527613
568.593768	576.310205
568.942870	552.037983
569.291927	605.436872
569.640940	576.310205
569.989910	558.510576
570.338836	532.620205
570.687718	569.837613
571.036557	532.620205
571.385351	560.937798
571.734101	566.601316
572.082808	584.400946
572.431471	557.701502
572.780089	512.393353
573.128664	508.347983
573.477195	499.448168
573.825682	551.228909
574.174125	549.610761
574.522524	461.421687
574.870879	513.202427
575.219189	529.383909
575.567456	480.839465
575.915679	484.884835
576.263858	477.603168
576.611992	439.576687
576.960083	458.185390
577.308129	501.066316
577.656131	454.949094
578.004089	461.421687
578.352003	431.485946
578.699873	420.158909
579.047698	376.468909
579.395479	436.340390
579.743217	461.421687
580.090909	406.404650
580.438558	374.850761
580.786162	403.977427
581.133722	372.423539
581.481238	403.977427
581.828709	344.105946
582.176136	434.722242
582.523519	357.860205
582.870857	368.378168
583.218151	395.077613
583.565400	378.087057
583.912605	311.742983
584.259766	401.550205
584.606882	349.769465
584.953954	375.659835
585.300981	293.943353
585.647964	336.824279
585.994902	336.824279
586.341796	315.788353
586.688646	348.960390
587.035450	336.824279
587.382210	361.905576
587.728926	333.587983
588.075597	269.671131
588.422223	313.361131
588.768805	308.506687
589.115342	377.277983
589.461835	319.833724
589.808282	266.434835
590.154685	321.451872
590.501044	271.289279
590.847357	310.933909
591.193626	285.043539
591.539851	264.816687
591.886030	279.380020
592.232165	216.272242
592.578255	280.189094
592.924300	287.470761
593.270300	318.215576
593.616255	252.680576
593.962166	335.206131
594.308032	323.879094
594.653852	223.553909
594.999628	225.981131
595.345359	218.699465
595.691045	242.971687
596.036686	245.398909
596.382283	243.780761
596.727834	221.935761
597.073340	222.744835
597.418801	276.143724
597.764217	193.618168
598.109589	246.207983
598.454915	213.035946
598.800196	273.716502
599.145432	230.835576
599.490623	240.544465
599.835768	263.198539
600.180869	224.362983
600.525925	206.563353
600.870935	177.436687
601.215900	200.090761
601.560820	160.446131
601.905695	249.444279
602.250525	195.236316
602.595309	159.637057
602.940048	215.463168
603.284742	204.136131
603.629390	221.935761
603.973994	204.945205
604.318552	166.918724
604.663064	224.362983
605.007532	118.374279
605.351954	161.255205
605.696330	150.737242
606.040661	166.918724
606.384947	160.446131
606.729188	136.982983
607.073383	156.400761
607.417532	141.837427
607.761636	144.264650
608.105695	126.465020
608.449708	162.064279
608.793676	182.291131
609.137598	155.591687
609.481474	206.563353
609.825305	165.300576
610.169091	154.782613
610.512831	165.300576
610.856525	201.708909
611.200174	153.164465
611.543777	120.801502
611.887334	138.601131
612.230846	209.799650
612.574312	150.737242
612.917733	171.773168
613.261107	148.310020
613.604436	167.727798
613.947720	155.591687
614.290957	153.973539
614.634149	124.037798
614.977295	96.529279
615.320395	175.009465
615.663450	166.918724
616.006458	125.655946
616.349421	178.245761
616.692338	192.000020
617.035209	138.601131
617.378034	71.447983
617.720813	81.156872
618.063546	16.430946
618.406234	76.302427
618.748875	135.364835
619.091471	136.982983
619.434020	150.737242
619.776524	95.720205
620.118982	83.584094
620.461393	107.856316
620.803759	107.856316
621.146078	28.567057
621.488351	91.674835
621.830579	22.094465
622.172760	91.674835
622.514895	106.238168
622.856984	102.192798
623.199027	62.548168
623.541024	124.037798
623.882974	69.829835
624.224878	80.347798
624.566737	49.602983
624.908549	152.355390
625.250314	134.555761
625.592034	143.455576
625.933707	87.629465
626.275334	128.892242
626.616914	70.638909
626.958449	102.192798
627.299937	72.257057
627.641378	78.729650
627.982774	73.066131
628.324123	123.228724
628.665425	97.338353
629.006681	133.746687
629.347891	13.194650
629.689055	57.693724
630.030171	98.956502
630.371242	81.965946
630.712266	47.175761
631.053243	104.620020
631.394174	53.648353
631.735059	79.538724
632.075897	79.538724
632.416688	46.366687
632.757433	-1.368684
633.098131	50.412057
633.438783	30.994279
633.779388	11.576502
634.119946	37.466872
634.460458	25.330761
634.800923	13.194650
635.141342	52.030205
635.481713	119.992427
635.822038	27.757983
636.162317	50.412057
636.502548	54.457427
636.842733	49.602983
637.182871	-24.831832
637.522963	49.602983
637.863007	45.557613
638.203005	72.257057
638.542956	-33.731647
638.882860	26.948909
639.222717	92.483909
639.562528	43.130390
639.902291	35.039650
640.242008	35.848724
640.581677	89.247613
640.921300	43.939465
641.260876	29.376131
641.600405	45.557613
641.939887	12.385576
642.279322	11.576502
642.618710	61.739094
642.958050	53.648353
643.297344	58.502798
643.636591	-37.777017
643.975791	-34.540721
644.314944	39.085020
644.654049	25.330761
644.993108	48.793909
645.332119	30.185205
645.671083	-6.223128
646.010000	10.767427
646.348870	26.948909
646.687693	9.149279
647.026468	-2.986832
647.365197	19.667242
647.703878	40.703168
648.042511	62.548168
648.381098	64.975390
648.719637	33.421502
649.058129	8.340205
649.396574	-2.177758
649.734971	56.075576
650.073321	43.939465
650.411624	27.757983
650.749879	15.621872
651.088087	13.194650
651.426248	-24.831832
651.764361	22.094465
652.102427	30.185205
652.440445	30.994279
652.778416	-8.650350
653.116339	1.867613
653.454215	4.294835
653.792043	23.712613
654.129824	29.376131
654.467557	-11.077573
654.805243	30.994279
655.142881	34.230576
655.480472	25.330761
655.818015	-32.113498
656.155510	68.211687
656.492958	11.576502
656.830358	17.240020
657.167711	-51.531276
657.505015	14.003724
657.842273	62.548168
658.179482	89.247613
658.516644	-28.877202
658.853758	81.156872
659.190824	-15.932017
659.527842	-32.922573
659.864813	35.039650
660.201736	5.912983
660.538611	76.302427
660.875438	1.867613
661.212218	55.266502
661.548950	39.085020
661.885633	59.311872
662.222269	4.294835
662.558857	71.447983
662.895397	21.285390
663.231889	16.430946
663.568334	-33.731647
663.904730	19.667242
664.241078	-32.113498
664.577378	10.767427
664.913631	14.812798
665.249835	-23.213684
665.585991	14.812798
665.922099	29.376131
666.258159	9.958353
666.594171	4.294835
666.930135	-40.204239
667.266051	-7.032202
667.601919	11.576502
667.937738	-11.077573
668.273510	9.958353
668.609233	69.829835
668.944908	-5.414054
669.280535	5.103909
669.616114	10.767427
669.951644	18.858168
670.287126	-21.595535
670.622560	47.175761
670.957946	1.867613
671.293283	-59.622017
671.628572	30.185205
671.963813	2.676687
672.299006	-48.294980
672.634150	1.867613
672.969245	17.240020
673.304293	-7.841276
673.639291	-31.304424
673.974242	1.867613
674.309144	8.340205
674.643998	7.531131
674.978803	-18.359239
675.313560	30.994279
675.648268	-11.077573
675.982928	-9.459424
676.317539	21.285390
676.652101	-2.986832
676.986615	22.903539
677.321081	15.621872
677.655498	29.376131
677.989866	12.385576
678.324186	20.476316
678.658457	35.848724
678.992680	16.430946
679.326854	-47.485906
679.660979	47.175761
679.995055	-14.313869
680.329083	-32.922573
680.663062	-19.977387
680.996993	9.958353
681.330874	-39.395165
681.664707	-28.877202
681.998491	46.366687
682.332227	-17.550165
682.665913	-10.268498
682.999551	-1.368684
683.333140	-24.022758
683.666680	22.094465
684.000171	-25.640906
684.333613	-26.449980
684.667006	-22.404610
685.000351	3.485761
685.333646	1.058539
685.666893	49.602983
686.000091	33.421502
686.333239	-7.032202
686.666339	-11.077573
686.999390	56.884650
687.332391	36.657798
687.665344	-20.786461
687.998247	30.994279
688.331102	10.767427
688.663907	-1.368684
688.996664	-32.113498
689.329371	-15.932017
689.662029	-0.559610
689.994638	-24.022758
690.327198	-37.777017
690.659708	-17.550165
690.992170	2.676687
691.324582	-32.113498
691.656945	-39.395165
691.989259	49.602983
692.321524	72.257057
692.653739	-45.058684
692.985905	54.457427
693.318022	-13.504795
693.650089	-4.604980
693.982107	-0.559610
694.314076	-59.622017
694.645996	-31.304424
694.977866	30.994279
695.309686	3.485761
695.641458	-18.359239
695.973180	2.676687
696.304852	-32.922573
696.636475	-17.550165
696.968049	24.521687
697.299573	-26.449980
697.631047	-41.013313
697.962472	-42.631461
698.293848	18.858168
698.625174	45.557613
698.956451	-30.495350
699.287678	-4.604980
699.618855	22.903539
699.949983	3.485761
700.281061	-11.077573
700.612089	26.948909
700.943068	38.275946
701.273998	-32.113498
701.604877	-33.731647
701.935707	60.930020
702.266487	12.385576
702.597218	46.366687
702.927899	-2.986832
703.258530	-10.268498
703.589111	-2.177758
703.919642	8.340205
704.250124	-18.359239
704.580556	-58.812943
704.910938	-33.731647
705.241270	-2.986832
705.571553	23.712613
705.901785	16.430946
706.231968	26.948909
706.562101	-15.932017
706.892184	-42.631461
707.222216	-27.259054
707.552199	-50.722202
707.882132	11.576502
708.212016	-30.495350
708.541849	30.994279
708.871632	11.576502
709.201365	24.521687
709.531048	-25.640906
709.860681	31.803353
710.190264	-10.268498
710.519796	-8.650350
710.849279	33.421502
711.178712	25.330761
711.508094	21.285390
711.837427	-7.032202
712.166709	-19.168313
712.495941	4.294835
712.825123	-28.877202
713.154255	13.194650
713.483336	24.521687
713.812367	49.602983
714.141348	-22.404610
714.470279	31.803353
714.799159	-2.986832
715.127990	42.321316
715.456769	-2.177758
715.785499	33.421502
716.114178	23.712613
716.442807	15.621872
716.771385	-33.731647
717.099914	-43.440535
717.428391	-24.831832
717.756819	9.958353
718.085195	-33.731647
718.413522	-8.650350
718.741798	40.703168
719.070023	23.712613
719.398198	-9.459424
719.726323	-46.676832
720.054397	18.049094
720.382420	-30.495350
720.710393	5.103909
721.038316	-0.559610
721.366188	-6.223128
721.694009	-12.695721
722.021779	-11.077573
722.349499	-10.268498
722.677169	18.858168
723.004787	-19.977387
723.332355	-46.676832
723.659873	-17.550165
723.987339	-38.586091
724.314755	21.285390
724.642120	14.003724
724.969435	-21.595535
725.296699	-28.877202
725.623911	32.612427
725.951074	40.703168
726.278185	4.294835
726.605245	38.275946
726.932255	36.657798
727.259214	-19.168313
727.586122	23.712613
727.912979	-11.886647
728.239785	26.948909
728.566540	6.722057
728.893245	-18.359239
729.219898	-7.841276
729.546501	18.858168
729.873052	56.075576
730.199552	-0.559610
730.526002	13.194650
730.852400	22.903539
731.178748	0.249465
731.505044	-30.495350
731.831290	15.621872
732.157484	14.812798
732.483627	-15.932017
732.809719	5.103909
733.135760	12.385576
733.461750	9.958353
733.787688	-1.368684
734.113576	-11.077573
734.439412	18.858168
734.765197	-21.595535
735.090931	21.285390
735.416614	12.385576
735.742245	-12.695721
736.067825	-63.667387
736.393354	-54.767573
736.718832	14.812798
737.044258	14.003724
737.369633	18.049094
737.694957	-7.841276
738.020229	29.376131
738.345450	-41.013313
738.670619	57.693724
738.995738	33.421502
739.320804	12.385576
739.645820	22.903539
739.970784	14.003724
740.295696	-2.986832
740.620557	-73.376276
740.945366	5.103909
741.270124	-67.712758
741.594831	-43.440535
741.919486	-38.586091
742.244089	14.003724
742.568641	2.676687
742.893141	29.376131
743.217590	-19.168313
743.541987	-14.313869
743.866332	-0.559610
744.190626	9.958353
744.514868	-44.249610
744.839058	3.485761
745.163197	45.557613
745.487284	29.376131
745.811320	-7.032202
746.135303	-12.695721
746.459235	-33.731647
746.783115	46.366687
747.106944	-10.268498
747.430720	-29.686276
747.754445	6.722057
748.078118	18.858168
748.401739	-17.550165
748.725308	-19.977387
749.048825	8.340205
749.372291	-22.404610
749.695705	9.149279
750.019066	-20.786461
750.342376	-41.822387
750.665634	30.185205
750.988840	35.848724
751.311994	-1.368684
751.635096	60.120946
751.958146	-36.158869
752.281143	-46.676832
752.604089	-50.722202
752.926983	17.240020
753.249825	9.958353
753.572615	-47.485906
753.895352	43.130390
754.218038	5.912983
754.540671	16.430946
754.863252	16.430946
755.185781	21.285390
755.508258	-15.122943
755.830683	12.385576
756.153056	-24.831832
756.475376	-37.777017
756.797644	-1.368684
757.119860	16.430946
757.442023	7.531131
757.764135	-25.640906
758.086194	27.757983
758.408201	51.221131
758.730155	-0.559610
759.052057	-11.886647
759.373907	2.676687
759.695704	-101.693869
760.017449	-8.650350
760.339142	-15.122943
760.660782	-28.068128
760.982370	-52.340350
761.303905	-32.113498
761.625388	-19.977387
761.946818	-4.604980
762.268196	39.085020
762.589521	25.330761
762.910794	2.676687
763.232015	-24.831832
763.553182	26.948909
763.874298	-15.932017
764.195360	-24.022758
764.516370	-2.177758
764.837328	-8.650350
765.158233	20.476316
765.479085	-29.686276
765.799885	29.376131
766.120631	-6.223128
766.441326	-66.903684
766.761967	-53.958498
767.082556	11.576502
767.403092	-44.249610
767.723575	-18.359239
768.044006	12.385576
768.364384	19.667242
768.684709	-56.385721
769.004981	11.576502
769.325200	5.912983
769.645367	-18.359239
769.965481	-28.068128
770.285541	-9.459424
770.605549	-43.440535
770.925504	14.812798
771.245407	59.311872
771.565256	16.430946
771.885052	41.512242
772.204795	15.621872
772.524486	-0.559610
772.844123	-65.285535
773.163708	-3.795906
773.483239	19.667242
773.802717	8.340205
774.122142	-3.795906
774.441515	-40.204239
774.760834	14.812798
775.080100	5.103909
775.399313	15.621872
775.718473	-8.650350
776.037579	10.767427
776.356633	-31.304424
776.675633	-19.168313
776.994580	9.149279
777.313474	-37.777017
777.632315	47.175761
777.951103	60.930020
778.269837	-29.686276
778.588518	-45.867758
778.907146	34.230576
779.225720	-19.168313
779.544242	22.094465
779.862709	28.567057
780.181124	22.094465
780.499485	1.058539
780.817793	-62.049239
781.136047	-15.122943
781.454248	-28.068128
781.772396	-21.595535
782.090490	5.103909
782.408531	64.166316
782.726518	5.912983
783.044452	-0.559610
783.362333	-37.777017
783.680159	-37.777017
783.997933	9.149279
784.315653	-15.932017
784.633319	-22.404610
784.950932	-19.977387
785.268491	17.240020
785.585996	-11.077573
785.903448	3.485761
786.220847	15.621872
786.538191	-36.158869
786.855482	-6.223128
787.172720	-53.958498
787.489903	-45.867758
787.807033	-2.177758
788.124110	56.884650
788.441132	-7.032202
788.758101	-49.913128
789.075016	89.247613
789.391877	-36.158869
789.708685	-7.032202
790.025438	-24.831832
790.342138	-48.294980
790.658784	-11.886647
790.975376	15.621872
791.291915	19.667242
791.608399	-11.886647
791.924830	8.340205
792.241206	-2.177758
792.557529	-1.368684
792.873798	0.249465
793.190012	-26.449980
793.506173	5.103909
793.822280	-0.559610
794.138333	-26.449980
794.454332	10.767427
794.770277	21.285390
795.086167	2.676687
795.402004	-66.903684
795.717787	85.202242
796.033515	1.867613
796.349190	-7.032202
796.664810	28.567057
796.980376	-16.741091
797.295888	-74.994424
797.611346	-27.259054
797.926750	-11.077573
798.242099	-20.786461
798.557394	6.722057
798.872635	1.867613
799.187822	19.667242
799.502955	18.858168
799.818033	46.366687
800.133057	21.285390
800.448027	18.858168
800.762942	15.621872
801.077803	-14.313869
801.392610	22.903539
801.707362	-31.304424
802.022060	19.667242
802.336703	31.803353
802.651292	-25.640906
802.965827	-32.113498
803.280307	-8.650350
803.594733	41.512242
803.909104	2.676687
804.223421	18.858168
804.537684	22.094465
804.851891	-10.268498
805.166045	-40.204239
805.480143	35.039650
805.794188	14.003724
806.108177	1.867613
806.422112	-12.695721
806.735993	53.648353
807.049818	26.139835
807.363590	66.593539
807.677306	-66.094610
807.990968	19.667242
808.304575	16.430946
808.618128	22.903539
808.931625	-6.223128
809.245068	-16.741091
809.558457	4.294835
809.871790	-13.504795
810.185069	-32.922573
810.498293	3.485761
810.811462	-8.650350
811.124576	0.249465
811.437636	-31.304424
811.750640	-84.703313
812.063590	4.294835
812.376485	12.385576
812.689325	2.676687
813.002110	23.712613
813.314840	33.421502
813.627516	-23.213684
813.940136	1.867613
814.252701	46.366687
814.565212	29.376131
814.877667	-6.223128
815.190067	31.803353
815.502413	24.521687
815.814703	-17.550165
816.126938	5.103909
816.439118	9.958353
816.751243	53.648353
817.063313	47.984835
817.375328	-30.495350
817.687287	-13.504795
817.999192	-12.695721
818.311041	-38.586091
818.622835	-43.440535
818.934574	-28.068128
819.246258	-32.113498
819.557887	-24.831832
819.869460	-57.194795
820.180978	-5.414054
820.492441	-45.867758
820.803848	10.767427
821.115200	-25.640906
821.426497	-4.604980
821.737739	-28.877202
822.048925	26.139835
822.360056	-32.113498
822.671131	15.621872
822.982151	9.958353
823.293116	11.576502
823.604025	-10.268498
823.914879	5.103909
824.225677	-25.640906
824.536420	56.884650
824.847107	69.020761
825.157739	7.531131
825.468315	38.275946
825.778836	-44.249610
826.089301	0.249465
826.399711	20.476316
826.710065	5.103909
827.020363	-15.932017
827.330606	-36.158869
827.640794	-17.550165
827.950925	-11.886647
828.261001	-24.022758
828.571022	-62.858313
828.880986	-8.650350
829.190895	-18.359239
829.500749	34.230576
829.810546	-9.459424
830.120288	8.340205
830.429974	-30.495350
830.739604	21.285390
831.049179	-62.049239
831.358697	27.757983
831.668160	-6.223128
831.977567	-16.741091
832.286918	3.485761
832.596213	-16.741091
832.905453	-25.640906
833.214636	-47.485906
833.523764	50.412057
833.832836	0.249465
834.141851	-2.986832
834.450811	-25.640906
834.759715	1.058539
835.068563	-33.731647
835.377355	47.175761
835.686091	-88.748684
835.994770	-19.977387
836.303394	-39.395165
836.611962	6.722057
836.920473	35.039650
837.228929	-13.504795
837.537328	36.657798
837.845672	22.094465
838.153959	2.676687
838.462190	23.712613
838.770365	35.848724
839.078483	-7.841276
839.386546	26.139835
839.694552	-33.731647
840.002502	49.602983
840.310396	53.648353
840.618233	22.903539
840.926015	-70.139980
841.233739	-3.795906
841.541408	-46.676832
841.849020	37.466872
842.156576	-44.249610
842.464076	-23.213684
842.771519	-55.576647
843.078906	-17.550165
843.386237	29.376131
843.693511	-9.459424
844.000729	34.230576
844.307890	28.567057
844.614995	-36.158869
844.922043	-22.404610
845.229035	-25.640906
845.535970	26.139835
845.842849	-39.395165
846.149671	-17.550165
846.456437	5.103909
846.763146	-22.404610
847.069799	-2.177758
847.376395	16.430946
847.682934	13.194650
847.989417	-12.695721
848.295843	-19.168313
848.602213	-14.313869
848.908526	-34.540721
849.214782	8.340205
849.520981	-22.404610
849.827124	5.103909
850.133210	23.712613
850.439239	1.058539
850.745212	23.712613
851.051128	-48.294980
851.356987	16.430946
851.662789	-27.259054
851.968534	-61.240165
852.274223	-32.113498
852.579854	1.058539
852.885429	12.385576
853.190947	52.839279
853.496408	24.521687
853.801812	28.567057
854.107160	29.376131
854.412450	-12.695721
854.717683	-7.032202
855.022859	-11.077573
855.327979	-4.604980
855.633041	31.803353
855.938046	26.139835
856.242995	-77.421647
856.547886	-10.268498
856.852720	14.003724
857.157497	2.676687
857.462217	-2.986832
857.766880	-13.504795
858.071486	-13.504795
858.376035	-39.395165
858.680526	-15.932017
858.984961	-27.259054
859.289338	3.485761
859.593658	6.722057
859.897921	2.676687
860.202126	59.311872
860.506275	-0.559610
860.810366	24.521687
861.114399	-16.741091
861.418376	-44.249610
861.722295	-36.967943
862.026157	-9.459424
862.329961	-16.741091
862.633709	-38.586091
862.937398	-7.841276
863.241031	8.340205
863.544606	-53.958498
863.848124	-23.213684
864.151584	-5.414054
864.454987	-34.540721
864.758332	18.049094
865.061620	-25.640906
865.364850	48.793909
865.668023	-20.786461
865.971138	9.958353
866.274196	47.984835
866.577196	-5.414054
866.880139	-2.986832
867.183024	43.130390
867.485852	3.485761
867.788622	17.240020
868.091334	-4.604980
868.393989	-12.695721
868.696586	-36.158869
868.999125	-18.359239
869.301607	17.240020
869.604031	-22.404610
869.906397	-51.531276
870.208706	-18.359239
870.510957	-16.741091
870.813150	-18.359239
871.115285	7.531131
871.417363	20.476316
871.719382	47.175761
872.021344	-32.922573
872.323248	-0.559610
872.625094	41.512242
872.926883	-54.767573
873.228613	8.340205
873.530286	-8.650350
873.831900	-14.313869
874.133457	-12.695721
874.434956	16.430946
874.736397	-7.032202
875.037780	-42.631461
875.339105	9.149279
875.640371	-52.340350
875.941580	-25.640906
876.242731	-31.304424
876.543824	-75.803498
876.844859	-11.886647
877.145835	-46.676832
877.446754	-58.812943
877.747614	34.230576
878.048417	1.058539
878.349161	-13.504795
878.649847	46.366687
878.950475	-9.459424
879.251045	-10.268498
879.551556	-20.786461
879.852010	53.648353
880.152405	22.903539
880.452741	17.240020
880.753020	49.602983
881.053240	-24.831832
881.353402	25.330761
881.653506	-15.932017
881.953552	-15.932017
882.253539	-3.795906
882.553467	18.858168
882.853338	39.894094
883.153150	-43.440535
883.452903	5.912983
883.752598	21.285390
884.052235	25.330761
884.351814	-2.986832
884.651333	4.294835
884.950795	15.621872
885.250198	20.476316
885.549542	-13.504795
885.848828	85.202242
886.148055	6.722057
886.447224	9.958353
886.746335	24.521687
887.045386	-10.268498
887.344379	0.249465
887.643314	5.103909
887.942190	-28.068128
888.241007	0.249465
888.539766	-10.268498
888.838465	12.385576
889.137107	-19.168313
889.435689	-18.359239
889.734213	14.812798
890.032678	-22.404610
890.331085	-2.177758
