wavelength	0.010062	0.010286	0.010257	0.010159	0.010181	0.010100

178.106480	2.912667	-16.505111	-34.709278	-34.709278	8.980722	47.816278
178.493382	2.912667	-16.505111	-34.709278	-34.709278	8.980722	47.816278
178.880256	2.912667	-16.505111	-34.709278	-34.709278	8.980722	47.816278
179.267103	-17.718722	5.339889	10.194333	10.194333	7.767111	-10.437056
179.653922	-51.457111	-84.224611	-79.370167	-79.370167	-53.884333	-28.398500
180.040713	-39.078278	0.970889	28.883944	28.883944	24.029500	-20.874111
180.427476	-23.058611	24.272222	6.068056	6.068056	37.621944	15.776944
180.814211	61.408722	25.000389	32.282056	32.282056	44.418167	57.767889
181.200918	-10.679778	12.378833	-21.602278	-21.602278	43.932722	3.883556
181.587598	68.690389	63.835944	56.554278	56.554278	99.030667	57.767889
181.974250	59.224222	82.282833	88.350889	88.350889	51.942556	79.855611
182.360873	43.204556	-4.126278	34.709278	34.709278	18.932333	37.136500
182.747469	44.660889	49.515333	53.156167	53.156167	79.855611	48.301722
183.134037	65.535000	52.185278	44.903611	44.903611	7.281667	30.340278
183.520577	139.808000	82.768278	109.467722	109.467722	91.263556	109.467722
183.907089	61.894167	1.213611	13.349722	13.349722	4.854444	1.213611
184.293573	60.437833	34.952000	20.388667	20.388667	41.020056	38.592833
184.680029	-11.893389	37.864667	30.583000	30.583000	34.223833	6.310778
185.066457	162.381167	94.418944	174.517278	174.517278	102.914222	107.768667
185.452857	71.845778	57.282444	69.418556	69.418556	109.467722	98.545222
185.839229	46.359944	69.418556	62.136889	62.136889	42.719111	60.923278
186.225573	80.098333	46.117222	7.281667	7.281667	67.962222	67.962222
186.611889	71.845778	50.000778	28.155778	28.155778	66.991333	33.010222
186.998176	23.058611	0.000000	31.553889	31.553889	38.835556	2.427222
187.384436	123.545611	27.670333	39.806444	39.806444	58.010611	47.088111
187.770668	81.311944	43.690000	50.971667	50.971667	55.826111	31.553889
188.156871	88.350889	101.700611	107.768667	107.768667	87.137278	95.632556
188.543046	36.893778	74.515722	81.797389	81.797389	80.583778	83.011000
188.929193	5.097167	58.496056	8.738000	8.738000	-3.398111	14.806056
189.315312	7.524389	33.010222	19.660500	19.660500	53.641611	45.146333
189.701403	61.651444	44.660889	58.010611	58.010611	49.515333	-3.883556
190.087466	89.321778	50.486222	37.136500	37.136500	56.554278	66.263167
190.473500	51.942556	28.883944	61.651444	61.651444	14.320611	39.806444
190.859506	115.778500	125.487389	116.992111	116.992111	192.236000	135.196278
191.245484	39.078278	76.700222	66.991333	66.991333	74.273000	45.146333
191.631434	11.650667	40.777333	27.427611	27.427611	41.990944	45.631778
192.017355	92.477167	54.855222	74.273000	74.273000	41.505500	87.622722
192.403248	136.895333	108.982278	82.282833	82.282833	98.059778	66.505889
192.789113	21.845000	41.262778	48.544444	48.544444	43.690000	29.126667
193.174949	84.224611	42.961833	45.389056	45.389056	83.011000	57.525167
193.560757	58.738778	32.039333	75.729333	75.729333	95.147111	93.933500
193.946537	63.835944	105.098722	111.166778	111.166778	65.049556	135.439000
194.332288	74.030278	82.525556	161.410278	161.410278	133.497222	99.516111
194.718011	72.573944	73.787556	30.097556	30.097556	64.078667	65.292278
195.103705	79.127444	82.768278	70.632167	70.632167	64.564111	39.078278
195.489371	16.747833	7.038944	32.524778	32.524778	7.038944	47.088111
195.875009	1.213611	55.826111	61.894167	61.894167	88.593611	43.690000
196.260618	85.923667	42.233667	54.369778	54.369778	45.874500	104.127833
196.646199	-4.854444	30.340278	-43.690000	-43.690000	-50.971667	38.835556
197.031751	37.864667	1.456333	0.242722	0.242722	23.301333	-30.097556
197.417275	51.942556	-22.087722	24.029500	24.029500	99.273389	90.778111
197.802771	43.204556	-62.379611	-17.476000	-17.476000	-36.893778	15.291500
198.188237	83.253722	83.253722	78.399278	78.399278	32.282056	83.253722
198.573676	48.787167	34.223833	58.496056	58.496056	39.078278	24.514944
198.959085	5.582611	25.000389	6.796222	6.796222	26.214000	40.777333
199.344466	13.107000	28.883944	15.534222	15.534222	10.679778	11.893389
199.729819	34.952000	85.923667	67.719500	67.719500	84.710056	62.865056
200.115143	85.923667	78.642000	49.515333	49.515333	87.137278	66.505889
200.500438	53.156167	105.341444	15.534222	15.534222	49.515333	56.797000
200.885705	9.708889	13.349722	33.981111	33.981111	67.962222	18.204167
201.270943	142.720667	97.817056	83.253722	83.253722	157.284000	79.612889
201.656152	19.903222	33.252944	6.553500	6.553500	16.262389	30.825722
202.041333	82.525556	133.497222	59.466944	59.466944	95.875278	66.748611
202.426485	45.631778	85.680944	43.204556	43.204556	26.214000	72.331222
202.811608	65.777722	68.204944	36.651056	36.651056	31.796611	36.651056
203.196703	-22.087722	-0.242722	-2.669944	-2.669944	16.747833	-23.301333
203.581769	40.049167	8.495278	29.126667	29.126667	43.690000	-21.845000
203.966806	23.058611	65.535000	55.826111	55.826111	26.699444	70.389444
204.351814	19.175056	26.456722	51.942556	51.942556	26.456722	-1.456333
204.736794	2.184500	-14.806056	-9.951611	-9.951611	21.602278	71.360333
205.121745	13.349722	70.389444	64.321389	64.321389	74.030278	13.349722
205.506667	29.612111	100.001556	106.069611	106.069611	81.797389	63.593222
205.891560	9.708889	14.563333	25.485833	25.485833	9.708889	8.495278
206.276424	19.417778	101.943333	55.826111	55.826111	76.457500	42.476389
206.661260	82.282833	101.700611	100.487000	100.487000	90.778111	79.855611
207.046066	89.564500	81.069222	68.933111	68.933111	55.583389	89.564500
207.430844	92.477167	116.749389	87.622722	87.622722	58.496056	109.467722
207.815593	-14.320611	93.690778	22.087722	22.087722	26.942167	66.991333
208.200313	43.204556	35.922889	57.767889	57.767889	16.505111	40.777333
208.585003	73.302111	68.447667	38.107389	38.107389	51.457111	22.330444
208.969665	40.777333	67.476778	56.554278	56.554278	69.904000	96.603444
209.354299	56.797000	41.020056	42.233667	42.233667	41.020056	106.555056
209.738903	13.349722	-6.068056	-9.708889	-9.708889	23.058611	-14.563333
210.123478	-8.252556	13.592444	-14.320611	-14.320611	22.087722	45.146333
210.508024	48.544444	46.117222	70.389444	70.389444	75.243889	31.553889
210.892541	75.243889	27.913056	8.495278	8.495278	6.068056	24.272222
211.277029	68.933111	70.146722	83.496444	83.496444	15.534222	61.651444
211.661488	39.563722	82.040111	90.535389	90.535389	-1.699056	-2.912667
212.045918	20.388667	37.379222	83.496444	83.496444	42.233667	64.078667
212.430318	-21.116833	-22.330444	18.932333	18.932333	-5.339889	15.291500
212.814690	76.700222	82.768278	85.195500	85.195500	71.845778	116.749389
213.199033	-24.272222	50.971667	42.476389	42.476389	31.553889	-20.631389
213.583346	66.748611	35.194722	29.126667	29.126667	24.272222	47.330833
213.967631	-30.825722	32.282056	1.941778	1.941778	46.845389	-11.407944
214.351886	40.049167	10.922500	2.427222	2.427222	14.563333	-18.204167
214.736112	54.369778	73.787556	73.787556	73.787556	19.175056	117.477556
215.120309	58.253333	21.845000	67.962222	67.962222	38.835556	46.117222
215.504476	23.544056	33.252944	-5.582611	-5.582611	23.544056	24.757667
215.888615	73.302111	57.525167	75.729333	75.729333	63.593222	102.428778
216.272724	50.243500	25.971278	5.339889	5.339889	42.961833	49.029889
216.656804	15.534222	87.137278	31.311167	31.311167	85.923667	50.728944
217.040854	5.825333	5.825333	10.679778	10.679778	34.952000	-29.369389
217.424876	58.496056	33.010222	58.496056	58.496056	75.486611	77.913833
217.808868	79.370167	63.593222	103.642389	103.642389	81.797389	75.729333
218.192830	28.641222	35.922889	63.835944	63.835944	45.631778	61.408722
218.576764	22.087722	16.019667	30.583000	30.583000	56.068833	48.787167
218.960668	31.553889	60.680556	42.476389	42.476389	40.049167	94.661667
219.344543	90.778111	67.719500	77.428389	77.428389	73.787556	98.059778
219.728388	-43.204556	27.184889	0.485444	0.485444	12.621556	7.767111
220.112204	95.632556	112.623111	76.214778	76.214778	99.273389	115.050333
220.495991	90.049944	94.904389	107.040500	107.040500	73.059389	75.486611
220.879748	114.322167	88.836333	121.603833	121.603833	99.758833	90.049944
221.263476	41.990944	51.699833	11.650667	11.650667	11.650667	89.321778
221.647174	99.030667	45.631778	51.699833	51.699833	31.068444	79.612889
222.030843	45.146333	92.477167	24.514944	24.514944	60.923278	73.059389
222.414482	55.826111	-6.068056	32.767500	32.767500	42.476389	43.690000
222.798092	88.108167	28.641222	65.049556	65.049556	79.612889	58.981500
223.181672	-11.165222	14.320611	-23.301333	-23.301333	-41.505500	-33.010222
223.565223	24.029500	73.787556	22.815889	22.815889	-5.097167	44.660889
223.948744	66.263167	38.350111	130.584556	130.584556	71.117611	38.350111
224.332236	67.234056	81.797389	24.757667	24.757667	92.719889	74.515722
224.715698	125.244667	151.944111	188.352444	188.352444	94.904389	102.186056
225.099131	48.059000	90.535389	71.117611	71.117611	-2.912667	51.699833
225.482534	16.019667	46.359944	52.428000	52.428000	26.942167	-25.243111
225.865907	-0.485444	-17.476000	-32.039333	-32.039333	-15.048778	-1.699056
226.249251	20.874111	73.059389	60.923278	60.923278	25.728556	41.505500
226.632565	130.827278	94.418944	77.428389	77.428389	93.205333	99.273389
227.015850	-15.534222	13.592444	13.592444	13.592444	73.059389	63.350500
227.399104	57.039722	66.748611	0.000000	0.000000	57.039722	43.690000
227.782329	25.728556	22.087722	43.932722	43.932722	-0.970889	-17.961444
228.165525	-2.912667	37.136500	41.990944	41.990944	4.369000	15.291500
228.548691	29.126667	59.466944	13.349722	13.349722	31.553889	1.213611
228.931827	18.932333	14.077889	44.418167	44.418167	28.641222	72.331222
229.314933	50.243500	131.555444	35.680167	35.680167	57.525167	119.419333
229.698009	52.185278	24.272222	38.835556	38.835556	10.922500	-7.281667
230.081056	15.776944	40.049167	44.903611	44.903611	46.117222	53.398889
230.464073	81.554667	75.486611	65.777722	65.777722	109.467722	68.204944
230.847060	35.194722	24.272222	30.340278	30.340278	15.776944	8.495278
231.230017	67.719500	136.895333	96.846167	96.846167	67.719500	101.700611
231.612944	-1.941778	0.485444	15.048778	15.048778	-28.641222	2.912667
231.995842	16.505111	45.631778	60.195111	60.195111	62.622333	34.709278
232.378709	58.738778	-22.573167	33.252944	33.252944	5.339889	-9.223444
232.761547	75.486611	75.486611	86.409111	86.409111	74.273000	121.603833
233.144355	77.913833	56.068833	24.514944	24.514944	41.505500	71.845778
233.527133	95.875278	121.361111	83.739167	83.739167	89.807222	106.797778
233.909881	37.379222	53.156167	16.747833	16.747833	85.923667	-3.883556
234.292599	76.457500	47.330833	40.049167	40.049167	33.981111	67.962222
234.675287	28.398500	18.689611	61.166000	61.166000	58.738778	90.292667
235.057945	-8.495278	32.767500	0.000000	0.000000	33.981111	57.039722
235.440574	15.534222	21.602278	10.679778	10.679778	78.642000	24.029500
235.823172	62.136889	68.204944	43.932722	43.932722	74.273000	41.505500
236.205740	83.981889	40.291889	48.787167	48.787167	108.254111	28.155778
236.588278	104.856000	78.156556	46.602667	46.602667	67.234056	44.175444
236.970786	108.739556	73.544833	96.603444	96.603444	77.185667	40.777333
237.353264	100.244278	60.195111	83.253722	83.253722	11.650667	32.282056
237.735712	87.380000	55.826111	57.039722	57.039722	75.243889	14.563333
238.118130	49.272611	51.699833	-5.339889	-5.339889	61.408722	-25.971278
238.500517	44.903611	44.903611	36.408333	36.408333	87.380000	8.495278
238.882875	29.612111	98.787944	64.806833	64.806833	7.767111	90.292667
239.265202	26.214000	45.631778	88.108167	88.108167	80.826500	52.913444
239.647499	31.311167	-13.592444	99.273389	99.273389	55.583389	33.738389
240.029767	-26.699444	49.758056	4.854444	4.854444	-8.495278	-3.640833
240.412003	15.291500	55.340667	35.922889	35.922889	71.117611	55.340667
240.794210	-6.553500	-13.835167	18.932333	18.932333	71.117611	23.786778
241.176387	-8.980722	46.845389	34.709278	34.709278	29.854833	58.981500
241.558533	30.340278	55.826111	84.952778	84.952778	65.535000	40.049167
241.940649	99.516111	72.816667	50.971667	50.971667	63.107778	29.126667
242.322734	51.942556	90.778111	94.418944	94.418944	110.195889	61.651444
242.704790	-18.446889	13.107000	-24.514944	-24.514944	-0.242722	16.747833
243.086815	20.388667	28.883944	70.146722	70.146722	62.865056	-20.874111
243.468810	6.553500	21.116833	10.194333	10.194333	-35.922889	-8.009833
243.850774	90.535389	35.922889	33.495667	33.495667	51.699833	57.767889
244.232709	101.457889	107.525944	90.535389	90.535389	51.699833	82.040111
244.614612	19.175056	31.311167	10.679778	10.679778	2.184500	-1.456333
244.996486	26.456722	15.534222	20.388667	20.388667	26.456722	28.883944
245.378329	28.641222	18.932333	48.059000	48.059000	26.214000	9.223444
245.760142	57.039722	8.495278	46.117222	46.117222	7.281667	77.671111
246.141924	91.749000	5.582611	65.049556	65.049556	71.117611	80.826500
246.523676	1.699056	6.553500	-9.223444	-9.223444	10.194333	-38.350111
246.905397	51.699833	6.796222	75.972056	75.972056	28.641222	28.641222
247.287088	106.555056	78.642000	133.254500	133.254500	105.341444	45.874500
247.668748	57.525167	39.321000	46.602667	46.602667	-1.941778	67.234056
248.050378	58.253333	57.039722	21.845000	21.845000	24.272222	33.981111
248.431978	76.942944	38.107389	41.748222	41.748222	-5.582611	34.466556
248.813547	17.961444	62.865056	81.069222	81.069222	59.224222	21.602278
249.195085	85.680944	78.399278	133.011778	133.011778	85.680944	89.321778
249.576593	36.651056	31.796611	14.806056	14.806056	-25.243111	-41.020056
249.958070	11.165222	-19.175056	23.301333	23.301333	7.524389	12.378833
250.339517	56.797000	48.301722	51.942556	51.942556	78.642000	82.282833
250.720933	100.487000	41.020056	25.243111	25.243111	65.292278	31.311167
251.102318	46.117222	-47.330833	-15.776944	-15.776944	25.485833	29.126667
251.483673	44.175444	25.971278	19.903222	19.903222	51.457111	17.476000
251.864997	11.407944	49.029889	-39.563722	-39.563722	51.457111	7.767111
252.246291	32.767500	36.408333	31.553889	31.553889	7.281667	29.126667
252.627554	38.107389	107.283222	29.612111	29.612111	32.039333	-0.728167
253.008786	4.854444	43.690000	60.680556	60.680556	-7.281667	7.281667
253.389987	133.011778	116.021222	54.127056	54.127056	58.981500	91.749000
253.771158	55.340667	77.185667	73.544833	73.544833	3.155389	28.641222
254.152298	53.641611	69.418556	8.738000	8.738000	99.758833	47.573556
254.533408	16.990556	44.903611	-36.408333	-36.408333	76.457500	40.049167
254.914486	31.068444	72.331222	56.554278	56.554278	26.214000	82.040111
255.295534	45.631778	-18.689611	74.758444	74.758444	46.845389	52.913444
255.676551	27.670333	-52.428000	0.970889	0.970889	54.369778	-8.738000
256.057537	39.321000	76.942944	55.097944	55.097944	78.156556	18.689611
256.438492	-9.223444	-4.369000	47.816278	47.816278	42.961833	11.407944
256.819417	48.544444	46.117222	87.380000	87.380000	66.748611	60.680556
257.200310	30.340278	16.990556	74.030278	74.030278	35.194722	58.253333
257.581173	-1.213611	10.922500	2.427222	2.427222	27.913056	20.631389
257.962005	-40.777333	33.252944	58.738778	58.738778	41.748222	38.107389
258.342806	38.350111	49.272611	101.457889	101.457889	123.302889	96.603444
258.723576	10.922500	66.748611	19.417778	19.417778	58.253333	84.952778
259.104315	86.894556	129.370944	119.662056	119.662056	91.749000	100.244278
259.485023	42.719111	6.310778	6.310778	6.310778	22.087722	66.991333
259.865700	76.214778	30.097556	76.214778	76.214778	39.806444	-7.524389
260.246347	36.165611	110.195889	81.069222	81.069222	50.728944	10.679778
260.626962	-14.320611	24.514944	19.660500	19.660500	-5.825333	3.883556
261.007546	25.728556	35.437444	57.282444	57.282444	26.942167	-27.670333
261.388099	-2.427222	-29.126667	24.272222	24.272222	-36.408333	59.466944
261.768621	66.748611	106.797778	66.748611	66.748611	80.098333	61.894167
262.149112	31.553889	41.262778	59.466944	59.466944	32.767500	88.593611
262.529573	33.981111	14.563333	21.845000	21.845000	36.408333	7.281667
262.910002	32.282056	28.641222	54.127056	54.127056	9.223444	0.728167
263.290399	69.904000	23.786778	66.263167	66.263167	51.699833	66.263167
263.670766	31.796611	33.010222	33.010222	33.010222	65.777722	37.864667
264.051102	17.476000	-33.495667	18.689611	18.689611	42.961833	0.485444
264.431406	41.020056	26.456722	4.611722	4.611722	22.815889	4.611722
264.811680	30.825722	-66.263167	27.184889	27.184889	23.544056	4.126278
265.191922	44.660889	65.292278	17.961444	17.961444	31.311167	50.728944
265.572133	40.291889	0.242722	7.524389	7.524389	0.242722	75.486611
265.952313	54.369778	89.564500	66.505889	66.505889	66.505889	55.583389
266.332461	61.166000	44.175444	64.806833	64.806833	63.593222	34.466556
266.712578	-4.126278	0.728167	-13.835167	-13.835167	40.777333	57.767889
267.092665	64.321389	27.913056	40.049167	40.049167	24.272222	-4.854444
267.472719	27.184889	63.593222	44.175444	44.175444	28.398500	-5.582611
267.852743	81.311944	118.933889	116.506667	116.506667	84.952778	99.516111
268.232735	6.553500	67.234056	0.485444	0.485444	36.893778	18.689611
268.612696	10.194333	46.602667	24.757667	24.757667	-32.282056	13.835167
268.992626	25.000389	40.777333	66.263167	66.263167	108.739556	86.894556
269.372524	38.350111	-1.699056	17.718722	17.718722	31.068444	15.291500
269.752391	79.855611	88.350889	47.088111	47.088111	64.078667	118.691167
270.132226	20.145944	14.077889	43.204556	43.204556	-4.126278	-10.194333
270.512030	23.544056	49.029889	-14.077889	-14.077889	21.116833	24.757667
270.891803	35.922889	92.962611	20.145944	20.145944	45.631778	69.904000
271.271545	42.233667	59.224222	89.564500	89.564500	79.855611	49.515333
271.651255	-5.582611	-5.582611	25.971278	25.971278	45.389056	47.816278
272.030933	48.787167	37.864667	29.369389	29.369389	148.303278	31.796611
272.410580	-9.951611	64.078667	41.020056	41.020056	7.038944	10.679778
272.790196	42.476389	10.922500	53.398889	53.398889	8.495278	6.068056
273.169780	51.214389	60.923278	31.796611	31.796611	17.233278	86.409111
273.549332	9.708889	19.417778	41.262778	41.262778	33.981111	57.039722
273.928853	104.856000	66.020444	96.360722	96.360722	56.311556	90.292667
274.308343	44.175444	91.506278	56.311556	56.311556	42.961833	51.457111
274.687800	25.971278	7.767111	0.485444	0.485444	24.757667	15.048778
275.067227	111.166778	89.321778	62.622333	62.622333	39.563722	58.981500
275.446622	49.029889	62.379611	59.952389	59.952389	21.116833	76.942944
275.825985	70.874889	39.321000	75.729333	75.729333	19.903222	85.438222
276.205316	28.641222	5.582611	0.728167	0.728167	9.223444	-21.116833
276.584616	87.380000	138.351667	27.913056	27.913056	98.302500	63.107778
276.963885	95.875278	59.466944	74.030278	74.030278	89.807222	53.398889
277.343121	-23.786778	35.680167	78.156556	78.156556	75.729333	16.262389
277.722326	58.253333	99.516111	106.797778	106.797778	115.293056	71.603056
278.101499	45.389056	78.156556	67.234056	67.234056	87.865444	63.593222
278.480641	55.583389	-1.456333	28.883944	28.883944	26.456722	53.156167
278.859751	28.398500	21.116833	-28.641222	-28.641222	25.971278	0.485444
279.238829	47.330833	65.535000	76.457500	76.457500	20.631389	20.631389
279.617875	35.437444	-0.970889	11.165222	11.165222	29.369389	-17.961444
279.996890	57.282444	-2.184500	-15.534222	-15.534222	54.855222	20.874111
280.375873	25.243111	67.719500	25.243111	25.243111	3.398111	16.747833
280.754824	16.019667	8.738000	-15.534222	-15.534222	50.000778	-3.398111
281.133743	16.262389	-6.796222	27.184889	27.184889	25.971278	-37.136500
281.512631	65.535000	71.603056	74.030278	74.030278	53.398889	75.243889
281.891486	44.175444	-4.369000	30.825722	30.825722	21.116833	24.757667
282.270310	19.417778	55.826111	32.767500	32.767500	47.330833	7.281667
282.649102	78.156556	45.389056	24.757667	24.757667	45.389056	35.680167
283.027862	-8.495278	43.690000	6.068056	6.068056	24.272222	16.990556
283.406590	12.378833	26.942167	62.136889	62.136889	-16.747833	46.359944
283.785286	77.913833	23.301333	24.514944	24.514944	82.768278	25.728556
284.163950	131.312722	33.010222	39.078278	39.078278	98.545222	87.622722
284.542582	-6.068056	18.204167	10.922500	10.922500	120.147500	46.117222
284.921183	91.020833	57.039722	77.671111	77.671111	74.030278	42.476389
285.299751	15.534222	48.301722	-28.155778	-28.155778	27.670333	-40.291889
285.678287	35.922889	60.195111	52.913444	52.913444	21.359556	82.040111
286.056792	4.369000	56.554278	37.136500	37.136500	51.699833	29.854833
286.435264	57.282444	30.583000	39.078278	39.078278	23.301333	36.651056
286.813704	31.068444	-6.553500	-19.903222	-19.903222	-6.553500	10.437056
287.192112	118.448444	108.739556	58.981500	58.981500	84.467333	97.817056
287.570489	15.291500	63.835944	1.941778	1.941778	41.990944	12.864278
287.948833	68.447667	50.243500	49.029889	49.029889	101.215167	80.583778
288.327145	21.116833	72.088500	-10.437056	-10.437056	91.506278	32.039333
288.705425	40.049167	46.117222	38.835556	38.835556	94.661667	70.389444
289.083672	49.272611	5.582611	21.359556	21.359556	54.127056	11.650667
289.461888	40.534611	62.379611	113.351278	113.351278	36.893778	42.961833
289.840071	24.757667	53.884333	22.330444	22.330444	52.670722	-9.223444
290.218223	33.010222	12.378833	30.583000	30.583000	22.087722	20.874111
290.596342	63.107778	16.990556	-3.640833	-3.640833	-23.058611	66.748611
290.974429	-33.738389	-26.456722	-20.388667	-20.388667	14.806056	-13.107000
291.352483	39.078278	48.787167	39.078278	39.078278	33.010222	-3.398111
291.730506	77.185667	91.749000	33.495667	33.495667	43.204556	77.185667
292.108496	1.213611	-4.854444	14.563333	14.563333	-26.699444	-41.262778
292.486454	20.388667	56.797000	-2.669944	-2.669944	13.107000	10.679778
292.864379	-42.476389	12.136111	12.136111	12.136111	55.826111	1.213611
293.242273	-12.621556	65.049556	1.941778	1.941778	-7.767111	-49.029889
293.620134	43.932722	81.554667	66.991333	66.991333	136.167167	86.409111
293.997963	87.137278	96.846167	78.642000	78.642000	90.778111	110.195889
294.375759	18.932333	54.127056	1.941778	1.941778	16.505111	31.068444
294.753523	8.495278	46.117222	38.835556	38.835556	93.448056	33.981111
295.131255	45.389056	51.457111	67.234056	67.234056	123.060167	55.097944
295.508954	128.400056	47.088111	56.797000	56.797000	95.632556	81.069222
295.886621	23.786778	22.573167	10.437056	10.437056	35.922889	6.796222
296.264255	177.915389	180.342611	226.459833	226.459833	164.565667	213.110111
296.641857	-34.952000	12.378833	24.514944	24.514944	80.341056	35.437444
297.019427	65.777722	70.632167	124.031056	124.031056	128.885500	62.136889
297.396964	-6.310778	38.592833	19.175056	19.175056	77.428389	32.524778
297.774469	20.388667	65.292278	30.097556	30.097556	24.029500	48.301722
298.151941	42.719111	91.263556	82.768278	82.768278	59.709667	76.700222
298.529380	60.680556	-4.854444	33.981111	33.981111	61.894167	23.058611
298.906788	25.971278	-49.272611	-27.427611	-27.427611	-48.059000	15.048778
299.284162	186.410667	159.711222	131.798167	131.798167	168.206500	159.711222
299.661504	103.156944	37.621944	61.894167	61.894167	76.457500	76.457500
300.038814	12.864278	17.718722	-27.184889	-27.184889	29.854833	44.418167
300.416090	12.378833	26.942167	37.864667	37.864667	16.019667	40.291889
300.793335	122.817444	100.972444	143.448833	143.448833	139.808000	122.817444
301.170546	44.418167	57.767889	56.554278	56.554278	77.185667	28.641222
301.547726	30.825722	61.166000	36.893778	36.893778	36.893778	33.252944
301.924872	-23.544056	51.699833	6.796222	6.796222	32.282056	49.272611
302.301986	17.961444	58.010611	33.738389	33.738389	25.243111	33.738389
302.679067	48.301722	76.214778	72.573944	72.573944	83.496444	65.292278
303.056115	13.349722	25.485833	27.913056	27.913056	54.612500	29.126667
303.433131	-25.485833	15.776944	-18.204167	-18.204167	41.262778	-6.068056
303.810114	36.651056	100.972444	23.301333	23.301333	114.322167	30.583000
304.187064	-38.107389	38.350111	41.990944	41.990944	-18.689611	-10.194333
304.563982	14.806056	28.155778	64.564111	64.564111	43.932722	52.428000
304.940866	16.262389	2.912667	50.243500	50.243500	81.797389	16.262389
305.317718	29.854833	29.854833	28.641222	28.641222	-27.184889	45.631778
305.694537	-1.456333	14.320611	-20.874111	-20.874111	-51.214389	-31.796611
306.071324	-10.437056	62.379611	25.971278	25.971278	39.321000	56.311556
306.448077	73.544833	35.922889	51.699833	51.699833	79.612889	54.127056
306.824798	78.156556	29.612111	44.175444	44.175444	75.729333	73.302111
307.201486	59.224222	25.243111	10.679778	10.679778	38.592833	16.747833
307.578141	6.068056	-3.640833	1.213611	1.213611	10.922500	-18.204167
307.954763	16.262389	17.476000	-25.000389	-25.000389	62.379611	11.407944
308.331352	77.185667	28.641222	40.777333	40.777333	16.505111	54.127056
308.707908	43.690000	10.922500	-4.854444	-4.854444	23.058611	43.690000
309.084432	-1.456333	24.029500	59.224222	59.224222	16.747833	7.038944
309.460922	55.340667	34.709278	41.990944	41.990944	44.418167	11.650667
309.837379	37.621944	50.971667	-1.213611	-1.213611	6.068056	61.894167
310.213804	76.457500	44.903611	50.971667	50.971667	19.417778	49.758056
310.590195	42.233667	15.534222	106.555056	106.555056	78.642000	50.728944
310.966554	70.146722	48.301722	84.710056	84.710056	31.311167	-7.524389
311.342879	-2.669944	24.029500	22.815889	22.815889	-1.456333	17.961444
311.719172	42.476389	25.485833	4.854444	4.854444	36.408333	58.253333
312.095431	-2.912667	40.777333	25.000389	25.000389	4.369000	34.709278
312.471657	40.291889	41.505500	-22.815889	-22.815889	50.000778	-39.806444
312.847851	152.915000	157.769444	101.943333	101.943333	156.555833	166.264722
313.224011	20.388667	73.787556	31.311167	31.311167	32.524778	56.797000
313.600138	67.234056	-23.786778	79.370167	79.370167	21.116833	58.738778
313.976232	15.291500	80.826500	52.913444	52.913444	23.786778	12.864278
314.352292	114.079444	-4.854444	54.612500	54.612500	21.845000	82.525556
314.728320	52.670722	91.506278	84.224611	84.224611	27.184889	70.874889
315.104314	64.321389	117.720278	75.243889	75.243889	97.088889	48.544444
315.480275	-11.165222	2.184500	26.456722	26.456722	-30.583000	-11.165222
315.856203	9.708889	77.671111	76.457500	76.457500	127.429167	67.962222
316.232098	42.233667	61.651444	66.505889	66.505889	16.747833	64.078667
316.607960	-5.582611	63.593222	70.874889	70.874889	36.893778	52.670722
316.983788	32.524778	65.292278	24.029500	24.029500	32.524778	67.719500
317.359583	15.291500	45.631778	23.786778	23.786778	83.253722	55.340667
317.735345	81.554667	53.641611	105.826889	105.826889	25.728556	75.486611
318.111073	-26.942167	11.893389	-13.592444	-13.592444	-23.301333	33.738389
318.486769	34.709278	5.582611	-75.729333	-75.729333	14.077889	-16.262389
318.862430	25.243111	60.437833	20.388667	20.388667	54.369778	-1.456333
319.238059	14.320611	7.038944	51.942556	51.942556	38.592833	8.252556
319.613654	-12.621556	-7.767111	15.291500	15.291500	48.059000	-30.825722
319.989216	38.592833	66.505889	34.952000	34.952000	9.466167	44.660889
320.364744	2.669944	6.310778	22.087722	22.087722	17.233278	28.155778
320.740239	29.854833	63.835944	-1.699056	-1.699056	31.068444	89.321778
321.115701	-2.669944	-57.282444	8.252556	8.252556	-16.019667	-19.660500
321.491129	25.485833	-13.349722	3.640833	3.640833	23.058611	32.767500
321.866524	9.223444	20.145944	51.699833	51.699833	82.040111	14.077889
322.241885	39.078278	39.078278	36.651056	36.651056	50.000778	22.087722
322.617213	56.797000	55.583389	66.505889	66.505889	75.001167	88.350889
322.992507	86.409111	122.817444	133.739944	133.739944	105.826889	80.341056
323.367768	65.535000	83.739167	37.621944	37.621944	138.351667	100.729722
323.742995	55.826111	0.000000	32.767500	32.767500	23.058611	65.535000
324.118189	7.281667	25.485833	30.340278	30.340278	72.816667	14.563333
324.493349	30.825722	7.767111	55.097944	55.097944	40.534611	32.039333
324.868475	38.835556	21.845000	59.466944	59.466944	92.234444	83.739167
325.243568	48.544444	46.117222	10.922500	10.922500	8.495278	26.699444
325.618628	-8.009833	-6.796222	6.553500	6.553500	5.339889	1.699056
325.993654	95.875278	63.107778	47.330833	47.330833	69.175833	59.466944
326.368646	53.398889	3.640833	21.845000	21.845000	20.631389	35.194722
326.743604	49.515333	31.311167	-8.738000	-8.738000	11.893389	-0.242722
327.118529	24.757667	30.825722	21.116833	21.116833	50.243500	42.961833
327.493421	38.107389	59.952389	29.612111	29.612111	-5.582611	36.893778
327.868278	82.040111	37.136500	-6.553500	-6.553500	-22.330444	6.796222
328.243102	58.253333	-18.204167	32.767500	32.767500	-7.281667	-19.417778
328.617892	9.708889	25.485833	-18.204167	-18.204167	13.349722	3.640833
328.992648	34.466556	66.020444	84.224611	84.224611	41.748222	70.874889
329.367371	99.030667	60.195111	82.040111	82.040111	54.127056	50.486222
329.742060	19.903222	15.048778	-9.223444	-9.223444	93.933500	106.069611
330.116715	50.486222	92.962611	37.136500	37.136500	97.817056	75.972056
330.491336	107.525944	83.253722	139.079833	139.079833	97.817056	80.826500
330.865924	33.495667	50.486222	33.495667	33.495667	16.505111	22.573167
331.240477	90.535389	92.962611	97.817056	97.817056	49.272611	62.622333
331.614997	87.865444	72.088500	30.825722	30.825722	45.389056	70.874889
331.989483	47.330833	21.845000	84.952778	84.952778	27.913056	49.758056
332.363935	70.146722	17.961444	28.883944	28.883944	-23.301333	26.456722
332.738354	52.185278	32.767500	103.156944	103.156944	86.166389	36.408333
333.112738	99.758833	58.496056	115.535778	115.535778	88.836333	96.118000
333.487088	72.088500	22.330444	10.194333	10.194333	4.126278	45.389056
333.861405	67.234056	118.205722	62.379611	62.379611	40.534611	38.107389
334.235687	51.457111	69.661278	113.351278	113.351278	53.884333	25.971278
334.609936	72.816667	12.136111	43.690000	43.690000	30.340278	59.466944
334.984150	58.496056	39.078278	31.796611	31.796611	26.942167	69.418556
335.358331	-31.796611	-2.669944	11.893389	11.893389	39.806444	4.611722
335.732478	-17.233278	16.747833	72.573944	72.573944	14.320611	-14.806056
336.106590	96.846167	21.602278	21.602278	21.602278	84.710056	17.961444
336.480669	83.981889	80.341056	103.399667	103.399667	68.204944	58.496056
336.854713	66.991333	40.291889	68.204944	68.204944	40.291889	33.010222
337.228724	-2.427222	54.612500	50.971667	50.971667	48.544444	23.058611
337.602700	162.138444	75.972056	85.680944	85.680944	105.098722	118.448444
337.976642	97.574333	96.360722	114.564889	114.564889	59.952389	124.273778
338.350550	27.670333	61.651444	36.165611	36.165611	60.437833	26.456722
338.724424	-2.427222	-10.922500	16.990556	16.990556	30.340278	-4.854444
339.098264	5.097167	3.883556	11.165222	11.165222	69.418556	-5.825333
339.472070	30.097556	25.243111	43.447278	43.447278	51.942556	33.738389
339.845842	66.505889	19.175056	90.778111	90.778111	38.592833	94.418944
340.219579	40.291889	14.806056	14.806056	14.806056	-5.825333	-32.524778
340.593282	65.535000	35.194722	27.913056	27.913056	26.699444	-4.854444
340.966951	51.214389	35.437444	68.204944	68.204944	80.341056	29.369389
341.340586	24.514944	2.669944	23.301333	23.301333	40.291889	17.233278
341.714186	-4.854444	-6.068056	47.330833	47.330833	10.922500	16.990556
342.087752	17.233278	102.186056	68.204944	68.204944	103.399667	43.932722
342.461284	-0.728167	70.874889	120.632944	120.632944	-12.864278	19.903222
342.834782	10.922500	6.068056	-19.417778	-19.417778	15.776944	33.981111
343.208245	24.272222	59.466944	41.262778	41.262778	67.962222	33.981111
343.581674	24.514944	16.019667	-11.893389	-11.893389	54.855222	11.165222
343.955069	53.641611	53.641611	19.660500	19.660500	-4.611722	-11.893389
344.328429	-10.194333	-22.330444	1.941778	1.941778	-32.039333	4.369000
344.701755	59.709667	70.632167	25.728556	25.728556	62.136889	41.505500
345.075047	-11.893389	-48.301722	3.883556	3.883556	17.233278	22.087722
345.448304	79.855611	50.728944	93.205333	93.205333	37.379222	26.456722
345.821526	-3.155389	-20.145944	-14.077889	-14.077889	-0.728167	-8.009833
346.194715	31.796611	59.709667	23.301333	23.301333	-0.970889	47.573556
346.567869	28.398500	34.466556	36.893778	36.893778	46.602667	63.593222
346.940988	-8.495278	4.854444	-9.708889	-9.708889	4.854444	72.816667
347.314073	37.864667	30.583000	0.242722	0.242722	65.777722	16.019667
347.687123	84.224611	50.243500	102.428778	102.428778	66.020444	83.011000
348.060139	-26.942167	-30.583000	19.175056	19.175056	-2.669944	-7.524389
348.433121	41.990944	28.641222	-13.835167	-13.835167	62.622333	27.427611
348.806067	77.913833	12.378833	56.068833	56.068833	60.923278	68.204944
349.178980	16.505111	1.941778	-21.116833	-21.116833	12.864278	40.777333
349.551858	164.322944	178.886278	154.614056	154.614056	121.846556	102.428778
349.924701	81.797389	70.874889	79.370167	79.370167	42.961833	85.438222
350.297509	92.234444	82.525556	60.680556	60.680556	71.603056	83.739167
350.670283	21.845000	71.603056	41.262778	41.262778	12.136111	86.166389
351.043023	35.680167	41.748222	51.457111	51.457111	21.116833	70.874889
351.415727	-28.641222	-10.437056	-20.145944	-20.145944	-26.214000	-18.932333
351.788397	95.389833	122.089278	106.312333	106.312333	90.535389	113.594000
352.161033	44.175444	126.701000	17.476000	17.476000	52.670722	66.020444
352.533633	118.205722	78.156556	124.273778	124.273778	51.457111	95.147111
352.906199	32.282056	-13.835167	21.359556	21.359556	11.650667	12.864278
353.278731	50.243500	15.048778	-9.223444	-9.223444	67.234056	24.757667
353.651227	-1.456333	21.602278	45.874500	45.874500	4.611722	64.078667
354.023689	58.981500	89.321778	54.127056	54.127056	57.767889	66.263167
354.396116	30.340278	110.438611	32.767500	32.767500	46.117222	40.049167
354.768508	8.495278	16.990556	35.194722	35.194722	89.807222	47.330833
355.140866	-25.000389	45.389056	52.670722	52.670722	12.621556	45.389056
355.513188	38.107389	50.243500	-65.049556	-65.049556	2.912667	16.262389
355.885476	30.825722	40.534611	29.612111	29.612111	28.398500	-9.223444
356.257729	79.127444	70.632167	51.214389	51.214389	45.146333	81.554667
356.629947	61.408722	48.059000	56.554278	56.554278	29.854833	75.972056
357.002130	67.476778	21.359556	75.972056	75.972056	52.913444	66.263167
357.374279	43.932722	86.409111	30.583000	30.583000	41.505500	36.651056
357.746392	66.991333	65.777722	99.758833	99.758833	94.904389	82.768278
358.118471	35.437444	104.613278	39.078278	39.078278	43.932722	8.738000
358.490514	41.990944	12.864278	56.554278	56.554278	22.573167	33.495667
358.862523	35.922889	31.068444	63.835944	63.835944	63.835944	124.516500
359.234497	76.942944	70.874889	103.642389	103.642389	72.088500	75.729333
359.606436	47.330833	29.126667	9.708889	9.708889	-9.708889	1.213611
359.978339	52.913444	16.505111	-6.553500	-6.553500	26.214000	37.136500
360.350208	89.079056	57.525167	76.942944	76.942944	86.651833	56.311556
360.722042	-12.378833	13.107000	-30.583000	-30.583000	14.320611	32.524778
361.093841	17.476000	55.097944	32.039333	32.039333	36.893778	17.476000
361.465604	43.447278	61.651444	64.078667	64.078667	42.233667	112.623111
361.837333	2.427222	57.039722	88.593611	88.593611	29.126667	80.098333
362.209026	0.970889	16.747833	45.874500	45.874500	36.165611	54.369778
362.580685	10.437056	57.767889	-7.767111	-7.767111	18.932333	-15.048778
362.952308	43.690000	33.981111	47.330833	47.330833	84.952778	23.058611
363.323896	53.884333	51.457111	41.748222	41.748222	68.447667	-21.359556
363.695449	26.942167	5.097167	-22.815889	-22.815889	-32.524778	34.223833
364.066967	58.738778	39.321000	68.447667	68.447667	44.175444	142.477944
364.438450	132.040889	82.282833	81.069222	81.069222	99.273389	39.806444
364.809897	34.709278	25.000389	-10.194333	-10.194333	40.777333	58.981500
365.181310	66.748611	52.185278	16.990556	16.990556	76.457500	27.913056
365.552687	3.155389	17.718722	46.845389	46.845389	91.749000	44.418167
365.924028	52.670722	59.952389	57.525167	57.525167	70.874889	29.612111
366.295335	4.369000	11.650667	-15.048778	-15.048778	49.272611	21.359556
366.666606	73.059389	30.583000	12.378833	12.378833	31.796611	-0.970889
367.037842	73.059389	116.749389	107.040500	107.040500	77.913833	47.573556
367.409043	6.796222	89.321778	12.864278	12.864278	-10.194333	55.340667
367.780209	0.970889	5.825333	-7.524389	-7.524389	-31.796611	48.301722
368.151339	39.563722	66.263167	66.263167	66.263167	33.495667	71.117611
368.522434	81.311944	38.835556	24.272222	24.272222	30.340278	43.690000
368.893493	33.010222	-10.679778	46.359944	46.359944	57.282444	29.369389
369.264517	39.321000	91.506278	46.602667	46.602667	38.107389	24.757667
369.635506	14.077889	56.554278	34.709278	34.709278	38.350111	55.340667
370.006459	-18.204167	15.776944	24.272222	24.272222	9.708889	24.272222
370.377377	-15.776944	-27.913056	-12.136111	-12.136111	-2.427222	41.262778
370.748260	42.476389	-18.204167	48.544444	48.544444	41.262778	97.088889
371.119107	72.088500	40.534611	53.884333	53.884333	16.262389	41.748222
371.489918	18.204167	7.281667	42.476389	42.476389	-19.417778	29.126667
371.860694	-43.447278	-77.428389	-21.602278	-21.602278	-65.292278	-17.961444
372.231435	51.942556	10.679778	50.728944	50.728944	24.029500	37.379222
372.602140	38.835556	57.039722	54.612500	54.612500	48.544444	19.417778
372.972809	40.534611	44.175444	46.602667	46.602667	53.884333	-18.932333
373.343444	39.078278	33.010222	71.845778	71.845778	1.456333	9.951611
373.714042	54.369778	68.933111	85.923667	85.923667	49.515333	70.146722
374.084605	66.505889	56.797000	73.787556	73.787556	107.768667	39.806444
374.455132	50.486222	3.155389	16.505111	16.505111	3.155389	33.495667
374.825624	5.097167	11.165222	31.796611	31.796611	-21.602278	43.932722
375.196080	39.078278	68.204944	19.660500	19.660500	62.136889	-4.611722
375.566501	-44.660889	24.514944	90.049944	90.049944	35.437444	-24.029500
375.936885	21.845000	-3.640833	-15.776944	-15.776944	18.204167	7.281667
376.307235	-0.485444	-24.757667	-21.116833	-21.116833	9.223444	12.864278
376.677548	162.138444	133.011778	113.594000	113.594000	88.108167	129.370944
377.047826	28.641222	5.582611	22.573167	22.573167	-0.485444	4.369000
377.418068	37.136500	45.631778	31.068444	31.068444	60.195111	35.922889
377.788275	63.350500	46.359944	48.787167	48.787167	56.068833	96.118000
378.158445	18.689611	75.729333	33.252944	33.252944	15.048778	10.194333
378.528580	87.622722	8.738000	13.592444	13.592444	39.078278	25.728556
378.898679	9.708889	72.816667	0.000000	0.000000	44.903611	54.612500
379.268743	18.204167	14.563333	27.913056	27.913056	26.699444	21.845000
379.638770	33.738389	82.282833	111.409500	111.409500	61.651444	101.700611
380.008762	64.078667	44.660889	51.942556	51.942556	-13.592444	37.379222
380.378718	74.758444	96.603444	114.807611	114.807611	82.040111	40.777333
380.748638	25.000389	46.845389	25.000389	25.000389	34.709278	31.068444
381.118523	3.640833	4.854444	75.243889	75.243889	-9.708889	65.535000
381.488371	63.593222	41.748222	-3.155389	-3.155389	28.398500	57.525167
381.858184	-31.068444	35.680167	0.485444	0.485444	23.544056	13.835167
382.227960	26.942167	16.019667	40.291889	40.291889	23.301333	25.728556
382.597701	-0.728167	-8.009833	7.767111	7.767111	6.553500	17.476000
382.967406	33.981111	63.107778	46.117222	46.117222	54.612500	18.204167
383.337075	34.709278	37.136500	-8.980722	-8.980722	9.223444	-67.234056
383.706708	69.175833	38.835556	57.039722	57.039722	63.107778	33.981111
384.076304	33.981111	48.544444	7.281667	7.281667	6.068056	49.758056
384.445865	23.786778	-21.116833	26.214000	26.214000	17.718722	77.185667
384.815390	-16.019667	66.505889	30.097556	30.097556	60.437833	66.505889
385.184879	7.038944	-23.301333	5.825333	5.825333	-31.796611	-19.660500
385.554332	-39.321000	-8.980722	8.009833	8.009833	-1.699056	-32.039333
385.923749	86.894556	79.612889	92.962611	92.962611	156.070389	84.467333
386.293130	91.506278	84.224611	78.156556	78.156556	133.982667	59.952389
386.662474	47.573556	77.913833	2.669944	2.669944	64.564111	34.223833
387.031783	38.835556	-8.495278	3.640833	3.640833	41.262778	4.854444
387.401055	27.184889	2.912667	-15.291500	-15.291500	-0.728167	35.680167
387.770292	51.699833	79.612889	21.359556	21.359556	48.059000	32.282056
388.139492	4.126278	-3.155389	33.252944	33.252944	1.699056	40.534611
388.508656	27.184889	59.952389	56.311556	56.311556	86.651833	92.719889
388.877784	-33.981111	29.126667	-29.126667	-29.126667	63.107778	50.971667
389.246876	0.970889	37.379222	16.747833	16.747833	10.679778	24.029500
389.615931	3.155389	25.000389	1.941778	1.941778	66.263167	50.486222
389.984950	-34.223833	3.398111	-16.019667	-16.019667	-37.864667	8.252556
390.353933	57.039722	-4.854444	16.990556	16.990556	41.262778	70.389444
390.722880	89.807222	77.671111	29.126667	29.126667	52.185278	50.971667
391.091791	19.660500	33.010222	23.301333	23.301333	16.019667	6.310778
391.460665	55.340667	91.749000	99.030667	99.030667	74.758444	77.185667
391.829503	108.011389	140.778889	57.039722	57.039722	125.001944	60.680556
392.198304	105.584167	55.826111	-10.922500	-10.922500	46.117222	61.894167
392.567070	22.573167	18.932333	8.009833	8.009833	61.408722	3.155389
392.935799	9.708889	18.204167	29.126667	29.126667	8.495278	-12.136111
393.304491	30.583000	36.651056	45.146333	45.146333	39.078278	52.428000
393.673148	73.059389	63.350500	70.632167	70.632167	77.913833	20.874111
394.041768	23.301333	54.855222	17.233278	17.233278	39.078278	23.301333
394.410351	73.787556	146.604222	24.029500	24.029500	85.923667	17.961444
394.778898	97.331611	107.040500	43.932722	43.932722	97.331611	77.913833
395.147409	126.458278	151.944111	110.681333	110.681333	116.749389	108.254111
395.515883	-34.709278	10.194333	30.825722	30.825722	47.816278	40.534611
395.884321	19.417778	41.262778	-19.417778	-19.417778	23.058611	3.640833
396.252722	69.175833	98.302500	98.302500	98.302500	150.487778	64.321389
396.621087	39.078278	12.378833	0.242722	0.242722	111.894944	46.359944
396.989415	26.214000	-5.339889	23.786778	23.786778	16.505111	43.204556
397.357707	66.505889	22.815889	153.885889	153.885889	53.156167	84.710056
397.725962	27.913056	57.039722	82.525556	82.525556	31.553889	18.204167
398.094181	5.339889	12.621556	18.689611	18.689611	10.194333	23.544056
398.462363	2.912667	47.816278	13.835167	13.835167	81.797389	58.738778
398.830508	-12.621556	-34.466556	-2.912667	-2.912667	18.932333	-39.321000
399.198617	67.234056	75.729333	36.893778	36.893778	62.379611	67.234056
399.566689	-7.038944	33.010222	71.845778	71.845778	66.991333	46.359944
399.934725	36.165611	22.815889	32.524778	32.524778	26.456722	16.747833
400.302724	-12.378833	-36.651056	22.815889	22.815889	-6.310778	-3.883556
400.670687	20.145944	29.854833	49.272611	49.272611	-23.544056	21.359556
401.038612	17.233278	-7.038944	71.845778	71.845778	56.068833	9.951611
401.406501	10.194333	4.126278	23.544056	23.544056	69.661278	34.466556
401.774354	28.883944	0.970889	50.728944	50.728944	34.952000	10.679778
402.142169	16.747833	28.883944	56.797000	56.797000	56.797000	24.029500
402.509948	69.904000	99.030667	48.059000	48.059000	109.953167	69.904000
402.877690	30.340278	72.816667	70.389444	70.389444	98.302500	84.952778
403.245396	33.252944	53.884333	45.389056	45.389056	29.612111	35.680167
403.613064	39.806444	15.534222	19.175056	19.175056	-7.524389	28.883944
403.980696	-5.339889	60.195111	26.214000	26.214000	-4.126278	27.427611
404.348291	18.932333	38.350111	43.204556	43.204556	38.350111	41.990944
404.715849	62.136889	11.165222	46.359944	46.359944	75.486611	17.233278
405.083370	52.185278	-52.185278	-33.981111	-33.981111	69.175833	47.330833
405.450855	41.748222	7.767111	50.243500	50.243500	4.126278	42.961833
405.818303	94.661667	89.807222	63.107778	63.107778	104.370556	72.816667
406.185713	26.214000	-17.476000	6.796222	6.796222	28.641222	-29.612111
406.553087	82.525556	91.020833	84.952778	84.952778	83.739167	46.117222
406.920424	52.185278	57.039722	88.593611	88.593611	75.243889	100.729722
407.287724	-7.281667	24.272222	14.563333	14.563333	-9.708889	-44.903611
407.654987	29.369389	59.709667	28.155778	28.155778	87.622722	26.942167
408.022213	79.855611	78.642000	83.496444	83.496444	54.369778	65.292278
408.389402	102.186056	39.078278	33.010222	33.010222	-16.747833	83.981889
408.756554	87.622722	35.437444	115.535778	115.535778	91.263556	122.817444
409.123669	60.680556	49.758056	38.835556	38.835556	71.603056	26.699444
409.490748	50.486222	28.641222	-12.621556	-12.621556	8.009833	51.699833
409.857789	51.942556	16.747833	67.719500	67.719500	11.893389	34.952000
410.224793	96.603444	63.835944	38.350111	38.350111	75.972056	22.573167
410.591760	64.078667	-18.446889	2.184500	2.184500	37.379222	3.398111
410.958689	28.155778	26.942167	3.883556	3.883556	-22.815889	-25.243111
411.325582	66.748611	71.603056	80.098333	80.098333	67.962222	55.826111
411.692438	8.980722	-16.505111	30.825722	30.825722	30.825722	68.447667
412.059256	35.680167	109.710444	135.196278	135.196278	102.428778	52.670722
412.426038	42.961833	6.553500	29.612111	29.612111	22.330444	78.156556
412.792782	-20.631389	94.661667	67.962222	67.962222	23.058611	95.875278
413.159489	72.331222	103.885111	111.166778	111.166778	131.798167	109.953167
413.526159	27.670333	22.815889	-1.456333	-1.456333	22.815889	47.088111
413.892792	29.369389	39.078278	81.554667	81.554667	-10.679778	13.592444
414.259387	66.748611	40.049167	92.234444	92.234444	1.213611	15.776944
414.625945	8.980722	5.339889	67.234056	67.234056	5.339889	-6.796222
414.992466	19.660500	47.573556	60.923278	60.923278	75.486611	58.496056
415.358950	35.680167	109.710444	72.088500	72.088500	45.389056	44.175444
415.725396	-0.000000	38.835556	14.563333	14.563333	10.922500	16.990556
416.091806	52.428000	48.787167	6.310778	6.310778	34.223833	24.514944
416.458177	18.932333	4.369000	72.331222	72.331222	43.204556	50.486222
416.824512	99.030667	44.418167	46.845389	46.845389	38.350111	45.631778
417.190809	11.893389	-11.165222	-17.233278	-17.233278	8.252556	-9.951611
417.557069	53.641611	83.981889	29.369389	29.369389	71.845778	71.845778
417.923291	25.000389	-22.330444	83.253722	83.253722	6.796222	-21.116833
418.289476	24.757667	7.767111	59.952389	59.952389	34.466556	70.874889
418.655624	70.146722	3.398111	39.806444	39.806444	-12.378833	-33.010222
419.021734	41.748222	39.321000	61.166000	61.166000	53.884333	16.262389
419.387807	-15.048778	66.263167	91.749000	91.749000	0.728167	11.650667
419.753843	69.175833	33.981111	78.884722	78.884722	31.553889	65.535000
420.119841	55.826111	-6.068056	27.913056	27.913056	44.903611	50.971667
420.485801	75.729333	33.252944	32.039333	32.039333	1.699056	4.126278
420.851724	89.807222	50.971667	74.030278	74.030278	37.621944	27.913056
421.217609	20.388667	-7.524389	19.175056	19.175056	-7.524389	-17.233278
421.583457	44.175444	76.942944	64.806833	64.806833	28.398500	36.893778
421.949268	30.340278	-18.204167	32.767500	32.767500	27.913056	32.767500
422.315041	43.447278	39.806444	24.029500	24.029500	27.670333	45.874500
422.680776	50.486222	65.049556	71.117611	71.117611	26.214000	10.437056
423.046474	54.855222	60.923278	73.059389	73.059389	90.049944	63.350500
423.412134	19.660500	53.641611	-2.184500	-2.184500	34.223833	70.632167
423.777756	-12.864278	-35.922889	-5.582611	-5.582611	36.893778	-0.728167
424.143341	16.019667	-11.893389	11.165222	11.165222	35.437444	31.796611
424.508888	-31.068444	1.699056	-1.941778	-1.941778	13.835167	11.407944
424.874398	24.757667	62.379611	28.398500	28.398500	27.184889	45.389056
425.239870	-18.446889	9.466167	27.670333	27.670333	19.175056	-6.310778
425.605304	27.913056	31.553889	43.690000	43.690000	52.185278	9.708889
425.970701	27.427611	-5.339889	29.854833	29.854833	9.223444	-29.612111
426.336059	72.816667	65.535000	37.621944	37.621944	2.427222	37.621944
426.701381	-0.485444	-10.194333	26.214000	26.214000	-24.757667	-32.039333
427.066664	49.758056	13.349722	-10.922500	-10.922500	-2.427222	-8.495278
427.431909	10.922500	49.758056	-4.854444	-4.854444	57.039722	49.758056
427.797117	-49.029889	26.214000	38.350111	38.350111	51.699833	-15.048778
428.162287	46.845389	65.049556	37.136500	37.136500	61.408722	41.990944
428.527419	0.242722	18.446889	33.010222	33.010222	14.806056	-8.252556
428.892514	10.922500	35.194722	25.485833	25.485833	21.845000	6.068056
429.257570	71.360333	7.038944	84.710056	84.710056	32.524778	82.282833
429.622589	58.253333	109.225000	24.272222	24.272222	41.262778	29.126667
429.987570	3.640833	31.553889	6.068056	6.068056	19.417778	-31.553889
430.352513	-33.981111	76.457500	33.981111	33.981111	18.204167	13.349722
430.717418	63.350500	57.282444	53.641611	53.641611	85.195500	76.700222
431.082285	38.350111	71.117611	48.059000	48.059000	84.467333	23.786778
431.447114	2.669944	51.214389	6.310778	6.310778	24.514944	34.223833
431.811905	44.903611	-2.427222	3.640833	3.640833	-1.213611	-23.058611
432.176659	15.048778	0.485444	38.107389	38.107389	8.980722	-12.864278
432.541374	116.506667	26.699444	89.807222	89.807222	59.466944	84.952778
432.906051	12.621556	-11.650667	10.194333	10.194333	38.107389	-4.369000
433.270691	-38.350111	-1.941778	36.893778	36.893778	0.485444	30.825722
433.635292	21.845000	26.699444	15.776944	15.776944	31.553889	67.962222
433.999855	29.854833	31.068444	16.505111	16.505111	43.204556	75.972056
434.364380	66.991333	83.981889	63.350500	63.350500	47.573556	62.136889
434.728867	24.757667	4.126278	27.184889	27.184889	34.466556	-6.796222
435.093317	82.525556	70.389444	43.690000	43.690000	82.525556	88.593611
435.457728	70.389444	36.408333	46.117222	46.117222	65.535000	65.535000
435.822100	29.369389	-8.252556	60.923278	60.923278	70.632167	64.564111
436.186435	42.476389	2.427222	58.253333	58.253333	25.485833	1.213611
436.550732	50.486222	105.098722	80.826500	80.826500	71.117611	72.331222
436.914990	20.874111	77.913833	34.223833	34.223833	50.000778	74.273000
437.279210	42.233667	115.050333	71.360333	71.360333	71.360333	72.573944
437.643392	-12.136111	8.495278	6.068056	6.068056	-32.767500	-27.913056
438.007536	35.437444	14.806056	31.796611	31.796611	11.165222	11.165222
438.371642	86.409111	14.806056	18.446889	18.446889	64.564111	56.068833
438.735709	38.835556	33.981111	44.903611	44.903611	35.194722	40.049167
439.099739	27.184889	53.884333	55.097944	55.097944	25.971278	53.884333
439.463730	103.642389	177.672667	136.409889	136.409889	110.924056	103.642389
439.827682	55.340667	52.913444	45.631778	45.631778	35.922889	50.486222
440.191597	32.767500	9.708889	38.835556	38.835556	80.098333	100.729722
440.555473	16.019667	71.845778	29.369389	29.369389	82.768278	37.864667
440.919310	-0.485444	80.826500	50.486222	50.486222	77.185667	57.767889
441.283110	128.642778	77.671111	66.748611	66.748611	109.225000	82.525556
441.646871	108.739556	71.117611	105.098722	105.098722	106.312333	66.263167
442.010593	68.447667	52.670722	38.107389	38.107389	49.029889	41.748222
442.374278	93.205333	20.388667	36.165611	36.165611	42.233667	28.883944
442.737924	33.010222	54.855222	76.700222	76.700222	91.263556	74.273000
443.101531	95.389833	49.272611	16.505111	16.505111	35.922889	37.136500
443.465100	47.088111	42.233667	28.883944	28.883944	37.379222	-17.233278
443.828631	70.874889	56.311556	45.389056	45.389056	6.553500	74.515722
444.192123	-56.554278	-32.282056	38.107389	38.107389	-23.786778	-33.495667
444.555577	20.631389	-41.262778	-12.136111	-12.136111	10.922500	38.835556
444.918992	43.690000	31.553889	47.330833	47.330833	77.671111	61.894167
445.282368	95.875278	23.058611	20.631389	20.631389	97.088889	65.535000
445.645707	-0.728167	-37.136500	17.476000	17.476000	-3.155389	28.398500
446.009006	-7.767111	27.427611	-6.553500	-6.553500	26.214000	60.195111
446.372267	56.068833	100.972444	121.603833	121.603833	45.146333	63.350500
446.735490	37.136500	14.077889	25.000389	25.000389	20.145944	11.650667
447.098674	21.116833	55.097944	27.184889	27.184889	22.330444	49.029889
447.461819	17.961444	89.564500	13.107000	13.107000	17.961444	60.437833
447.824926	21.116833	40.534611	-11.650667	-11.650667	49.029889	17.476000
448.187994	43.204556	4.369000	20.145944	20.145944	-2.912667	57.767889
448.551023	34.952000	60.437833	51.942556	51.942556	38.592833	66.505889
448.914014	10.922500	82.525556	49.758056	49.758056	40.049167	59.466944
449.276966	13.107000	32.524778	-20.874111	-20.874111	50.728944	48.301722
449.639880	36.165611	36.165611	55.583389	55.583389	54.369778	84.710056
450.002754	81.554667	30.583000	62.136889	62.136889	70.632167	41.505500
450.365590	30.825722	28.398500	13.835167	13.835167	90.292667	6.553500
450.728388	91.991722	27.670333	-3.883556	-3.883556	14.320611	-5.097167
451.091146	37.379222	-29.369389	-34.223833	-34.223833	44.660889	-30.583000
451.453866	66.748611	31.553889	32.767500	32.767500	101.943333	91.020833
451.816547	100.487000	9.466167	71.360333	71.360333	58.010611	59.224222
452.179189	19.417778	-10.922500	49.758056	49.758056	40.049167	19.417778
452.541793	91.263556	91.263556	68.204944	68.204944	74.273000	82.768278
452.904357	49.758056	29.126667	44.903611	44.903611	7.281667	42.476389
453.266883	89.079056	11.407944	38.107389	38.107389	64.806833	44.175444
453.629370	17.233278	56.068833	17.233278	17.233278	57.282444	75.486611
453.991818	8.738000	-19.175056	-9.466167	-9.466167	28.155778	-7.038944
454.354227	57.039722	33.981111	21.845000	21.845000	49.758056	52.185278
454.716597	84.467333	73.544833	45.631778	45.631778	102.671500	48.059000
455.078929	81.311944	67.962222	70.389444	70.389444	114.079444	67.962222
455.441221	49.029889	21.116833	101.215167	101.215167	50.243500	30.825722
455.803475	66.020444	96.360722	59.952389	59.952389	46.602667	63.593222
456.165689	-13.592444	11.893389	62.865056	62.865056	-3.883556	31.311167
456.527865	48.059000	73.544833	71.117611	71.117611	66.263167	55.340667
456.890001	100.972444	47.573556	68.204944	68.204944	134.953556	74.273000
457.252099	75.001167	77.428389	85.923667	85.923667	66.505889	89.564500
457.614157	12.378833	-5.825333	-30.097556	-30.097556	-16.747833	1.456333
457.976177	120.390222	59.709667	68.204944	68.204944	60.923278	91.263556
458.338157	56.797000	90.778111	106.555056	106.555056	43.447278	96.846167
458.700099	66.991333	46.359944	40.291889	40.291889	20.874111	51.214389
459.062001	66.505889	130.827278	125.972833	125.972833	117.477556	45.874500
459.423864	131.312722	159.225778	120.390222	120.390222	228.401611	156.798556
459.785688	94.418944	107.768667	118.691167	118.691167	71.360333	68.933111
460.147473	-37.136500	27.184889	30.825722	30.825722	66.020444	29.612111
460.509219	63.350500	46.359944	74.273000	74.273000	29.369389	46.359944
460.870926	26.456722	41.020056	-23.301333	-23.301333	-46.359944	9.466167
461.232593	17.718722	10.437056	23.786778	23.786778	-5.339889	-5.339889
461.594221	39.563722	15.291500	-40.534611	-40.534611	54.127056	45.631778
461.955810	85.680944	-10.194333	17.718722	17.718722	55.340667	34.709278
462.317360	23.786778	57.767889	28.641222	28.641222	46.845389	12.864278
462.678871	138.108944	55.583389	95.632556	95.632556	68.933111	105.341444
463.040342	15.048778	33.252944	11.407944	11.407944	46.602667	29.612111
463.401775	-26.699444	71.603056	70.389444	70.389444	70.389444	20.631389
463.763167	-13.107000	9.951611	-15.534222	-15.534222	0.242722	-47.088111
464.124521	0.242722	-37.379222	16.019667	16.019667	-25.243111	-49.515333
464.485835	94.661667	114.079444	77.671111	77.671111	93.448056	100.729722
464.847110	87.865444	74.515722	58.738778	58.738778	66.020444	29.612111
465.208346	22.330444	22.330444	36.893778	36.893778	-9.223444	-6.796222
465.569542	34.709278	72.331222	105.098722	105.098722	103.885111	108.739556
465.930699	94.418944	89.564500	125.972833	125.972833	53.156167	115.050333
466.291817	50.000778	59.709667	83.981889	83.981889	16.019667	64.564111
466.652895	53.156167	9.466167	81.069222	81.069222	50.728944	32.524778
467.013933	62.622333	100.244278	50.486222	50.486222	41.990944	9.223444
467.374933	81.311944	65.535000	59.466944	59.466944	74.030278	54.612500
467.735892	64.078667	58.010611	78.642000	78.642000	33.738389	64.078667
468.096813	99.273389	117.477556	145.390611	145.390611	128.400056	106.555056
468.457694	66.505889	30.097556	81.069222	81.069222	39.806444	9.466167
468.818535	18.932333	84.467333	102.671500	102.671500	80.826500	83.253722
469.179337	-42.233667	29.369389	-20.388667	-20.388667	6.310778	87.622722
469.540099	62.622333	50.486222	99.030667	99.030667	51.699833	90.535389
469.900822	30.097556	16.747833	82.282833	82.282833	49.515333	30.097556
470.261506	46.602667	68.447667	100.001556	100.001556	95.147111	46.602667
470.622149	79.612889	111.166778	73.544833	73.544833	75.972056	50.486222
470.982753	3.640833	27.913056	13.349722	13.349722	18.204167	57.039722
471.343318	100.729722	105.584167	108.011389	108.011389	117.720278	118.933889
471.703843	6.553500	30.825722	-58.981500	-58.981500	-26.214000	-6.796222
472.064328	161.653000	107.040500	76.700222	76.700222	102.186056	149.516889
472.424774	-14.563333	98.302500	47.330833	47.330833	48.544444	35.194722
472.785180	18.204167	8.495278	40.049167	40.049167	14.563333	58.253333
473.145546	62.865056	-12.378833	43.447278	43.447278	24.029500	-40.291889
473.505873	77.428389	83.496444	78.642000	78.642000	-3.883556	76.214778
473.866160	-59.224222	28.155778	-7.038944	-7.038944	-17.961444	8.738000
474.226407	74.030278	13.349722	100.729722	100.729722	-0.000000	-6.068056
474.586615	65.049556	50.486222	69.904000	69.904000	67.476778	35.922889
474.946783	13.835167	57.525167	69.661278	69.661278	25.971278	-6.796222
475.306911	19.175056	93.205333	73.787556	73.787556	58.010611	66.505889
475.666999	-4.369000	22.330444	83.011000	83.011000	35.680167	11.407944
476.027047	74.273000	46.359944	22.087722	22.087722	35.437444	41.505500
476.387056	10.437056	5.582611	50.486222	50.486222	69.904000	55.340667
476.747025	64.564111	58.496056	50.000778	50.000778	68.204944	53.641611
477.106954	55.097944	68.447667	10.194333	10.194333	62.379611	10.194333
477.466843	91.263556	104.613278	85.195500	85.195500	116.749389	62.136889
477.826692	137.138056	154.128611	149.274167	149.274167	106.797778	88.593611
478.186502	114.807611	85.680944	124.516500	124.516500	67.476778	84.467333
478.546271	-16.747833	0.242722	26.942167	26.942167	39.078278	40.291889
478.906001	53.156167	104.127833	64.078667	64.078667	72.573944	108.982278
479.265690	33.981111	105.584167	3.640833	3.640833	46.117222	63.107778
479.625340	106.069611	78.156556	22.330444	22.330444	112.137667	51.457111
479.984950	-6.553500	-5.339889	52.913444	52.913444	-12.621556	-28.398500
480.344519	56.797000	83.496444	89.564500	89.564500	66.505889	77.428389
480.704049	40.777333	48.059000	-19.903222	-19.903222	85.680944	37.136500
481.063539	16.505111	17.718722	-44.175444	-44.175444	5.582611	-13.835167
481.422989	12.136111	66.748611	89.807222	89.807222	87.380000	82.525556
481.782398	69.904000	35.922889	61.408722	61.408722	45.631778	62.622333
482.141768	11.893389	37.379222	71.360333	71.360333	64.078667	34.952000
482.501098	54.612500	50.971667	38.835556	38.835556	40.049167	19.417778
482.860387	41.990944	14.077889	32.282056	32.282056	60.195111	10.437056
483.219637	-17.718722	4.126278	57.525167	57.525167	41.748222	6.553500
483.578846	-33.738389	7.524389	39.078278	39.078278	29.369389	52.428000
483.938015	35.680167	52.670722	34.466556	34.466556	63.593222	64.806833
484.297144	-14.563333	-24.272222	16.990556	16.990556	-1.213611	20.631389
484.656233	65.777722	41.505500	41.505500	41.505500	5.097167	35.437444
485.015282	-8.495278	-6.068056	6.068056	6.068056	20.631389	32.767500
485.374291	48.544444	97.088889	31.553889	31.553889	70.389444	42.476389
485.733259	62.865056	75.001167	64.078667	64.078667	93.205333	79.855611
486.092187	51.699833	68.690389	34.709278	34.709278	95.389833	27.427611
486.451075	64.806833	89.079056	6.553500	6.553500	123.060167	41.748222
486.809923	62.379611	36.893778	74.515722	74.515722	64.806833	56.311556
487.168730	49.758056	30.340278	-10.922500	-10.922500	40.049167	88.593611
487.527497	140.536167	107.768667	170.876444	170.876444	94.418944	73.787556
487.886224	14.563333	63.107778	52.185278	52.185278	36.408333	32.767500
488.244910	38.592833	72.573944	44.660889	44.660889	-33.010222	26.456722
488.603557	77.185667	46.845389	105.098722	105.098722	80.826500	94.176222
488.962162	106.312333	90.535389	49.272611	49.272611	25.000389	86.894556
489.320728	73.059389	76.700222	17.233278	17.233278	11.165222	24.514944
489.679253	78.642000	75.001167	82.282833	82.282833	122.332000	70.146722
490.037738	40.291889	64.564111	79.127444	79.127444	46.359944	52.428000
490.396182	84.224611	113.351278	178.886278	178.886278	90.292667	76.942944
490.754586	70.632167	87.622722	88.836333	88.836333	48.787167	26.942167
491.112950	100.244278	96.603444	66.263167	66.263167	63.835944	99.030667
491.471273	21.116833	30.825722	74.515722	74.515722	36.893778	39.321000
491.829555	144.177000	56.797000	54.369778	54.369778	64.078667	73.787556
492.187798	39.806444	19.175056	31.311167	31.311167	25.243111	9.466167
492.545999	53.641611	52.428000	47.573556	47.573556	99.758833	47.573556
492.904160	41.020056	93.205333	82.282833	82.282833	158.740333	101.700611
493.262281	12.378833	-8.252556	14.806056	14.806056	9.951611	33.010222
493.620361	104.613278	75.486611	70.632167	70.632167	90.049944	47.573556
493.978401	45.631778	39.563722	1.941778	1.941778	11.650667	-7.767111
494.336400	70.389444	63.107778	64.321389	64.321389	101.943333	101.943333
494.694358	1.456333	47.573556	-8.252556	-8.252556	50.000778	43.932722
495.052276	20.874111	73.059389	8.738000	8.738000	8.738000	5.097167
495.410153	33.252944	40.534611	22.330444	22.330444	58.738778	2.912667
495.767990	61.894167	81.311944	61.894167	61.894167	75.243889	74.030278
496.125786	29.854833	8.009833	58.981500	58.981500	41.990944	21.359556
496.483541	85.680944	116.021222	86.894556	86.894556	108.739556	89.321778
496.841255	13.107000	47.088111	88.350889	88.350889	53.156167	59.224222
497.198929	87.865444	55.097944	74.515722	74.515722	59.952389	72.088500
497.556563	72.816667	58.253333	72.816667	72.816667	55.826111	118.933889
497.914155	26.456722	10.679778	11.893389	11.893389	53.156167	72.573944
498.271707	88.836333	116.749389	131.312722	131.312722	111.894944	80.341056
498.629218	33.010222	16.019667	31.796611	31.796611	7.524389	33.010222
498.986688	68.933111	93.205333	98.059778	98.059778	104.127833	81.069222
499.344118	81.311944	69.175833	80.098333	80.098333	104.370556	70.389444
499.701506	7.524389	39.078278	42.719111	42.719111	43.932722	-14.320611
500.058854	72.573944	113.836722	53.156167	53.156167	54.369778	27.670333
500.416161	145.876056	103.399667	126.458278	126.458278	133.739944	153.157722
500.773428	110.681333	130.099111	127.671889	127.671889	71.845778	91.263556
501.130653	-18.446889	20.388667	3.398111	3.398111	-19.660500	2.184500
501.487837	49.515333	65.292278	82.282833	82.282833	101.700611	110.195889
501.844981	46.845389	94.176222	65.049556	65.049556	65.049556	96.603444
502.202084	55.340667	18.932333	12.864278	12.864278	21.359556	61.408722
502.559146	35.194722	40.049167	69.175833	69.175833	77.671111	55.826111
502.916167	41.505500	18.446889	94.904389	94.904389	92.477167	88.836333
503.273146	75.972056	50.486222	48.059000	48.059000	38.350111	84.467333
503.630085	24.272222	-18.204167	78.884722	78.884722	27.913056	55.826111
503.986984	78.156556	53.884333	98.787944	98.787944	30.825722	47.816278
504.343841	41.748222	52.670722	68.447667	68.447667	16.262389	75.729333
504.700657	78.642000	110.195889	102.914222	102.914222	49.515333	111.409500
505.057432	139.322556	71.360333	146.604222	146.604222	50.728944	89.564500
505.414166	65.777722	14.806056	-9.466167	-9.466167	-14.320611	-15.534222
505.770858	45.631778	84.467333	99.030667	99.030667	79.612889	40.777333
506.127510	74.758444	68.690389	75.972056	75.972056	23.786778	37.136500
506.484121	185.925222	-8.252556	40.291889	40.291889	58.496056	56.068833
506.840691	59.466944	18.204167	57.039722	57.039722	37.621944	25.485833
507.197219	16.505111	4.369000	14.077889	14.077889	22.573167	25.000389
507.553707	24.757667	89.079056	21.116833	21.116833	49.029889	50.243500
507.910153	29.369389	13.592444	-25.243111	-25.243111	47.573556	1.456333
508.266558	28.155778	-2.184500	33.010222	33.010222	23.301333	41.505500
508.622922	61.894167	49.758056	30.340278	30.340278	18.204167	59.466944
508.979245	3.398111	62.865056	7.038944	7.038944	20.388667	51.942556
509.335527	-1.699056	82.040111	122.089278	122.089278	68.690389	33.495667
509.691767	31.796611	23.301333	34.223833	34.223833	0.242722	59.709667
510.047966	-15.776944	10.922500	18.204167	18.204167	-3.640833	9.708889
510.404124	44.418167	35.922889	-4.126278	-4.126278	17.718722	-4.126278
510.760241	47.088111	39.806444	31.311167	31.311167	-0.242722	71.360333
511.116316	56.068833	-10.679778	69.418556	69.418556	51.214389	25.728556
511.472350	116.749389	92.477167	46.359944	46.359944	64.564111	62.136889
511.828343	97.331611	75.486611	108.254111	108.254111	45.146333	103.399667
512.184295	69.904000	63.835944	60.195111	60.195111	75.972056	100.244278
512.540205	68.447667	58.738778	41.748222	41.748222	33.252944	33.252944
512.896073	75.486611	35.437444	42.719111	42.719111	66.991333	64.564111
513.251901	-11.893389	57.282444	14.806056	14.806056	60.923278	40.291889
513.607687	67.476778	45.631778	58.981500	58.981500	44.418167	75.972056
513.963431	14.806056	13.592444	63.350500	63.350500	34.223833	69.418556
514.319135	99.758833	48.787167	50.000778	50.000778	68.204944	51.214389
514.674796	32.767500	66.748611	91.020833	91.020833	46.117222	41.262778
515.030417	1.456333	26.942167	58.496056	58.496056	50.000778	17.233278
515.385996	67.719500	38.592833	31.311167	31.311167	85.923667	45.874500
515.741533	158.497611	94.176222	119.662056	119.662056	77.185667	58.981500
516.097029	27.670333	32.524778	-0.242722	-0.242722	85.923667	71.360333
516.452483	44.418167	0.728167	33.495667	33.495667	68.690389	46.845389
516.807896	127.671889	36.651056	62.136889	62.136889	81.554667	79.127444
517.163268	57.767889	112.380389	92.962611	92.962611	116.021222	82.040111
517.518597	59.466944	64.321389	21.845000	21.845000	61.894167	36.408333
517.873886	-9.951611	31.311167	34.952000	34.952000	70.146722	43.447278
518.229132	63.107778	54.612500	67.962222	67.962222	121.361111	40.049167
518.584337	78.399278	80.826500	75.972056	75.972056	102.671500	55.340667
518.939501	113.594000	62.622333	84.467333	84.467333	44.418167	61.408722
519.294623	39.078278	75.486611	65.777722	65.777722	64.564111	86.409111
519.649703	72.088500	41.748222	109.710444	109.710444	83.011000	91.506278
520.004742	102.914222	65.292278	68.933111	68.933111	49.515333	67.719500
520.359738	80.826500	109.953167	29.854833	29.854833	62.622333	91.749000
520.714694	53.398889	31.553889	64.321389	64.321389	50.971667	37.621944
521.069607	58.496056	73.059389	47.573556	47.573556	91.263556	51.214389
521.424479	70.632167	121.603833	124.031056	124.031056	93.690778	59.709667
521.779309	143.691556	101.215167	142.477944	142.477944	124.273778	102.428778
522.134097	48.301722	37.379222	49.515333	49.515333	20.388667	73.787556
522.488844	77.913833	73.059389	121.603833	121.603833	71.845778	113.108556
522.843549	66.748611	80.098333	75.243889	75.243889	91.020833	120.147500
523.198211	35.922889	97.817056	101.457889	101.457889	55.340667	126.943722
523.552833	14.320611	31.311167	62.865056	62.865056	87.137278	50.728944
523.907412	95.147111	95.147111	85.438222	85.438222	129.128222	51.457111
524.261949	30.097556	-19.660500	-5.097167	-5.097167	-0.242722	27.670333
524.616445	-3.155389	12.621556	75.729333	75.729333	8.980722	23.544056
524.970899	50.486222	38.350111	40.777333	40.777333	77.185667	61.408722
525.325311	161.653000	167.721056	149.516889	149.516889	144.662444	150.730500
525.679681	112.137667	106.069611	93.933500	93.933500	51.457111	50.243500
526.034009	122.332000	105.341444	37.379222	37.379222	133.254500	100.487000
526.388295	62.136889	82.768278	116.749389	116.749389	94.904389	77.913833
526.742539	99.273389	84.710056	78.642000	78.642000	61.651444	54.369778
527.096742	106.555056	96.846167	142.963389	142.963389	105.341444	142.963389
527.450902	104.613278	69.418556	62.136889	62.136889	50.000778	65.777722
527.805020	34.709278	75.972056	3.155389	3.155389	41.990944	75.972056
528.159096	125.244667	113.108556	87.622722	87.622722	98.545222	121.603833
528.513131	45.631778	112.380389	29.854833	29.854833	56.554278	69.904000
528.867123	53.641611	64.564111	-7.038944	-7.038944	111.894944	50.000778
529.221073	58.010611	50.728944	51.942556	51.942556	27.670333	89.564500
529.574981	112.137667	121.846556	176.459056	176.459056	118.205722	155.827667
529.928847	107.768667	82.282833	123.545611	123.545611	124.759222	142.963389
530.282671	125.001944	149.274167	115.293056	115.293056	154.128611	89.807222
530.636453	168.934667	126.458278	230.828833	230.828833	194.420500	184.711611
530.990193	218.207278	176.944500	201.216722	201.216722	167.235611	197.575889
531.343891	80.341056	144.662444	141.021611	141.021611	111.894944	126.458278
531.697546	141.264333	121.846556	143.691556	143.691556	165.536556	131.555444
532.051159	180.342611	157.284000	194.905944	194.905944	166.992889	160.924833
532.404730	36.651056	51.214389	35.437444	35.437444	66.991333	58.496056
532.758259	77.185667	85.680944	48.059000	48.059000	62.622333	67.476778
533.111746	108.011389	134.710833	76.457500	76.457500	133.497222	111.652222
533.465190	56.068833	60.923278	125.244667	125.244667	99.758833	128.885500
533.818593	32.282056	120.875667	60.195111	60.195111	82.040111	86.894556
534.171952	67.962222	71.603056	69.175833	69.175833	70.389444	121.361111
534.525270	61.408722	114.807611	66.263167	66.263167	96.603444	65.049556
534.878545	97.574333	142.477944	118.205722	118.205722	144.905167	121.846556
535.231778	79.855611	95.632556	73.787556	73.787556	85.923667	61.651444
535.584969	103.156944	61.894167	27.913056	27.913056	44.903611	77.671111
535.938118	146.361500	112.380389	113.594000	113.594000	171.847333	105.098722
536.291224	66.505889	104.127833	111.409500	111.409500	65.292278	68.933111
536.644287	97.088889	54.612500	97.088889	97.088889	80.098333	58.253333
536.997309	72.816667	37.621944	24.272222	24.272222	70.389444	129.856389
537.350288	30.583000	54.855222	86.409111	86.409111	71.845778	64.564111
537.703224	35.437444	82.768278	50.000778	50.000778	62.136889	94.904389
538.056118	124.759222	129.613667	113.836722	113.836722	151.458667	139.322556
538.408970	152.429556	124.516500	122.089278	122.089278	122.089278	173.060944
538.761779	38.350111	26.214000	69.904000	69.904000	40.777333	58.981500
539.114546	86.166389	50.971667	47.330833	47.330833	114.079444	108.011389
539.467270	51.942556	51.942556	34.952000	34.952000	90.778111	62.865056
539.819951	95.147111	126.701000	113.351278	113.351278	121.846556	104.856000
540.172591	227.916167	229.129778	225.488944	225.488944	191.507833	163.594778
540.525187	122.332000	75.001167	100.487000	100.487000	54.369778	56.797000
540.877741	87.865444	132.769056	116.992111	116.992111	51.457111	86.651833
541.230253	212.381944	149.274167	135.924444	135.924444	163.837500	196.605000
541.582722	40.534611	115.778500	75.729333	75.729333	138.837111	62.379611
541.935148	112.623111	151.458667	178.158111	178.158111	169.662833	96.846167
542.287532	138.351667	109.225000	200.245833	200.245833	116.506667	133.497222
542.639873	148.546000	146.118778	152.186833	152.186833	120.632944	167.963778
542.992172	125.972833	169.662833	149.031444	149.031444	195.148667	108.982278
543.344427	149.274167	169.905556	219.663611	219.663611	225.731667	231.799722
543.696641	154.371333	168.934667	164.080222	164.080222	164.080222	189.566056
544.048811	268.208056	270.635278	243.935833	243.935833	265.780833	208.741111
544.400939	372.093167	381.802056	443.696222	443.696222	400.006222	347.820944
544.753024	404.132500	334.956667	388.355556	388.355556	364.083333	345.879167
545.105066	307.043611	341.024722	299.761944	299.761944	287.625833	350.733611
545.457066	265.780833	331.315833	299.761944	299.761944	338.597500	332.529444
545.809023	322.577833	306.800889	338.354778	338.354778	292.237556	314.082556
546.160937	236.411444	310.441722	229.129778	229.129778	270.392556	282.528667
546.512808	167.478333	222.090833	196.605000	196.605000	189.323333	257.285556
546.864636	169.177389	182.527111	188.595167	188.595167	180.099889	197.090444
547.216422	200.731278	193.449611	228.644333	228.644333	269.907111	201.944889
547.568165	227.188000	273.305222	246.605778	246.605778	287.868556	261.169111
547.919865	189.323333	213.595556	242.722222	242.722222	276.703333	179.614444
548.271522	232.042444	303.645500	232.042444	232.042444	293.936611	342.481056
548.623136	186.653389	196.362278	196.362278	196.362278	189.080611	297.092000
548.974707	243.935833	308.257222	258.499167	258.499167	262.140000	248.790278
549.326236	305.101833	252.916556	250.489333	250.489333	329.374056	343.937389
549.677721	275.247000	346.850056	300.732833	300.732833	331.073111	327.432278
550.029164	337.383889	288.839444	305.830000	305.830000	274.276111	354.374444
550.380563	398.307167	361.898833	382.530222	382.530222	374.034944	387.384667
550.731920	318.937000	317.723389	402.676167	402.676167	357.772556	345.636444
551.083233	338.840222	342.481056	314.568000	314.568000	302.431889	357.044389
551.434504	372.335889	428.162000	447.579778	447.579778	339.568389	453.647833
551.785731	414.326833	365.782389	410.686000	410.686000	438.599056	397.336278
552.136916	438.113611	464.813056	430.831944	430.831944	430.831944	464.813056
552.488057	592.484944	539.086056	519.668278	519.668278	593.698556	607.048278
552.839156	544.668667	562.872833	533.746167	533.746167	509.473944	578.649778
553.190211	618.941667	612.873611	575.251667	575.251667	644.427500	598.310278
553.541223	623.796111	546.125000	595.883056	595.883056	625.009722	644.427500
553.892193	701.709944	654.379111	700.496333	700.496333	700.496333	689.573833
554.243119	816.760278	689.331111	834.964444	834.964444	726.953056	819.187500
554.594002	845.886944	758.506944	792.488056	792.488056	811.905833	853.168611
554.944841	800.740611	815.303944	874.770889	874.770889	825.012833	829.867278
555.295638	918.218167	931.567889	936.422333	936.422333	902.441222	944.917611
555.646391	942.004944	948.073000	984.481333	984.481333	897.101333	938.364111
555.997101	1038.851111	995.161111	1007.297222	1007.297222	1008.510833	1043.705556
556.347768	1108.997833	1079.871167	1119.920333	1119.920333	1105.357000	1034.967556
556.698392	1109.240556	1161.425833	1083.754722	1083.754722	1112.881389	1199.047778
557.048972	1174.532833	1175.746444	1283.757833	1283.757833	1212.154778	1258.272000
557.399510	1370.652389	1284.486000	1385.215722	1385.215722	1314.826278	1384.002111
557.750004	1519.683833	1377.691333	1495.411611	1495.411611	1440.799111	1547.596889
558.100454	1454.877000	1457.304222	1456.090611	1456.090611	1426.963944	1470.653944
558.450862	1457.546944	1519.441111	1526.722778	1526.722778	1557.063056	1530.363611
558.801226	1630.365167	1624.297111	1569.684611	1569.684611	1596.384056	1603.665722
559.151546	1723.570500	1710.220778	1676.239667	1676.239667	1716.288833	1746.629111
559.501824	1789.590944	1754.396222	1825.999278	1825.999278	1756.823444	1790.804556
559.852058	1897.602333	2001.972889	1934.010667	1934.010667	1893.961500	1930.369833
560.202248	2022.118833	2070.663278	2068.236056	2068.236056	2042.750222	2093.721889
560.552395	2161.926833	2148.577111	2169.208500	2169.208500	2215.325722	2194.694333
560.902499	2245.666000	2273.579056	2290.569611	2290.569611	2284.501556	2300.278500
561.252560	2373.337889	2387.901222	2500.767056	2500.767056	2414.600667	2384.260389
561.602576	2451.979889	2499.310722	2658.293778	2658.293778	2538.146278	2549.068778
561.952550	2762.907056	2785.965667	2767.761500	2767.761500	2719.217056	2778.684000
562.302480	2870.918444	2835.723722	2883.054556	2883.054556	3008.056500	2998.347611
562.652366	3217.283056	3139.611944	3290.099722	3290.099722	3208.787778	3237.914444
563.002209	3296.410500	3369.227167	3439.616611	3439.616611	3472.384111	3553.696056
563.352009	3737.194056	3859.768778	3932.585444	3932.585444	3748.116556	3987.197944
563.701765	4097.636556	4248.124333	4185.016556	4185.016556	4114.627111	4238.415444
564.051477	4522.157722	4610.751333	4638.664389	4638.664389	4666.577444	4667.791056
564.401146	4878.716667	4984.300833	4921.193056	4921.193056	5106.875556	5048.622222
564.750771	5487.221278	5556.397111	5567.319611	5567.319611	5652.272389	5674.117389
565.100353	6098.881278	6174.125167	6316.117667	6316.117667	6359.807667	6419.274611
565.449891	6761.512944	6998.167111	6876.806000	6876.806000	6994.526278	7171.713500
565.799385	7468.562778	7685.799167	7684.585556	7684.585556	7784.101667	7848.423056
566.148836	8395.276222	8584.599556	8434.111778	8434.111778	8588.240389	8906.206500
566.498243	9455.729611	9597.722111	9598.935722	9598.935722	9727.578500	9825.881000
566.847607	10464.968611	10506.231389	10597.252222	10597.252222	11012.307222	11000.171111
567.196927	11701.881056	11744.357444	11883.922722	11883.922722	11987.079667	12353.590222
567.546203	13031.998833	13078.116056	13325.692722	13325.692722	13377.878000	13961.624944
567.895435	14328.135500	14621.829389	14637.606333	14637.606333	15042.952444	15553.882722
568.244624	15735.924389	16039.327167	16175.251611	16175.251611	16857.301056	17199.539389
568.593768	17739.596333	17575.758833	18203.195778	18203.195778	18437.422722	18881.604389
568.942870	19157.094111	19211.706611	19653.461056	19653.461056	20203.226889	20965.374667
569.291927	20886.732667	21061.492667	21778.736833	21778.736833	22197.432667	22728.994333
569.640940	22658.847611	22639.429833	23604.250667	23604.250667	24280.232056	25089.710667
569.989910	24524.410611	24369.068389	25458.891167	25458.891167	26166.426444	26952.846444
570.338836	26397.498000	26611.093556	27625.672444	27625.672444	28205.778556	29363.563556
570.687718	28185.632611	28183.205389	29421.088722	29421.088722	29884.688167	31139.562056
571.036557	29782.987556	29984.447000	30979.608111	30979.608111	31683.502556	32570.652278
571.385351	30843.926389	30915.529444	32597.594444	32597.594444	33194.691111	33915.576111
571.734101	32407.057500	31992.002500	34115.821944	34115.821944	34448.351389	35411.958611
572.082808	33497.123000	33071.145500	35069.963000	35069.963000	35673.127722	36489.888000
572.431471	34470.196389	34143.735000	36607.365556	36607.365556	36678.968611	37573.400000
572.780089	35019.962222	35012.680556	36825.815556	36825.815556	37061.256111	37854.957778
573.128664	35603.951889	35520.212722	37216.841056	37216.841056	37105.188833	38214.429389
573.477195	35491.814222	35312.199778	37073.149500	37073.149500	37405.678944	38035.543111
573.825682	35107.827667	35126.031833	36948.875722	36948.875722	36899.117667	37411.261556
574.174125	35080.400056	34639.859222	36618.045333	36618.045333	36113.183111	36588.918667
574.522524	34261.212556	33952.955333	35639.874778	35639.874778	34841.318667	35641.088389
574.870879	33656.834222	33124.058944	34815.832833	34815.832833	33916.547000	34387.428111
575.219189	32737.887889	32302.201500	33565.570667	33565.570667	32933.279278	33257.313444
575.567456	31547.092667	30924.510167	32110.208222	32110.208222	31698.794056	31791.028500
575.915679	30422.560611	30183.479222	31414.080889	31414.080889	30564.553111	30377.657000
576.263858	29070.112389	28384.422111	29638.082389	29638.082389	29016.713500	28601.658500
576.611992	27381.251167	27316.929778	28109.417833	28109.417833	27306.007278	27301.152833
576.960083	26149.921333	26159.630222	26748.231611	26748.231611	26221.524389	25515.202722
577.308129	24859.852722	24476.351611	25397.482444	25397.482444	24481.206056	24035.810778
577.656131	23339.440722	22874.627667	23610.076000	23610.076000	23036.037944	22476.563222
578.004089	21805.436278	21869.757667	22135.538500	22135.538500	21343.050444	21055.424611
578.352003	20396.919222	20086.234778	20765.857000	20765.857000	20110.507000	19457.584222
578.699873	18613.881778	18658.785389	19198.842333	19198.842333	18331.110389	17929.405111
579.047698	17282.064944	17201.966611	17712.896889	17712.896889	17203.180222	16734.726333
579.395479	16220.155222	15803.886611	16313.603278	16313.603278	15806.313833	15379.122722
579.743217	14806.055556	14688.335278	14973.533889	14973.533889	14257.503333	14202.890833
580.090909	13480.064056	13538.317389	13764.049056	13764.049056	13401.179333	13024.959889
580.438558	12334.172444	12331.745222	12676.410778	12676.410778	12339.026889	12189.752722
580.786162	11507.460556	11475.906667	11548.723333	11548.723333	11441.925556	11275.660833
581.133722	10616.184556	10815.216778	10750.895389	10750.895389	10553.076778	10534.872611
581.481238	10010.349889	9777.336556	9980.009611	9980.009611	9756.705167	9659.616278
581.828709	9136.307167	9159.365778	9297.717444	9297.717444	9195.774111	9036.791056
582.176136	8786.544444	8616.638889	8754.990556	8754.990556	8640.911111	8484.355278
582.523519	8163.233778	8087.989889	8418.092111	8418.092111	8125.611833	8120.757389
582.870857	7787.985222	7729.731889	7678.760222	7678.760222	7723.663833	7660.556056
583.218151	7206.180056	7257.151722	7292.346444	7292.346444	7207.393667	7287.492000
583.565400	6911.515278	6910.301667	6928.505833	6928.505833	6969.768611	6929.719444
583.912605	6515.149889	6566.121556	6569.762389	6569.762389	6719.036556	6499.372944
584.259766	6305.195167	6294.272667	6357.380444	6357.380444	6300.340722	6455.682944
584.606882	6028.734556	5948.636222	6071.210944	6071.210944	6148.882056	6066.356500
584.953954	5774.361667	5926.063056	5910.286111	5910.286111	5737.953333	5815.624444
585.300981	5409.792889	5463.191778	5471.687056	5471.687056	5634.310944	5505.668167
585.647964	5408.579278	5475.327889	5412.220111	5412.220111	5521.445111	5482.609556
585.994902	5162.701667	5211.246111	5166.342500	5166.342500	5247.654444	5291.344444
586.341796	5044.981389	5134.788611	4949.106111	4949.106111	5116.584444	5065.612778
586.688646	4953.960556	4832.599444	5036.486111	5036.486111	5020.709167	4949.106111
587.035450	4801.288278	4800.074667	4709.053833	4709.053833	4840.123833	4800.074667
587.382210	4450.311944	4509.778889	4645.703333	4645.703333	4517.060556	4656.625833
587.728926	4559.536944	4525.555833	4570.459444	4570.459444	4535.264722	4598.372500
588.075597	4422.641611	4368.029111	4387.446889	4387.446889	4360.747444	4426.282444
588.422223	4262.930389	4239.871778	4221.667611	4221.667611	4227.735667	4295.697889
588.768805	4161.715222	4189.628278	4253.949667	4253.949667	4232.104667	4344.970500
589.115342	4054.189278	4027.489833	4134.287611	4134.287611	4103.947333	4055.402889
589.461835	4003.217611	3988.654278	3955.886778	3955.886778	4146.423722	4042.053167
589.808282	3885.254611	3881.613778	3949.576000	3949.576000	4067.296278	4046.664889
590.154685	3885.982778	3831.370278	3885.982778	3885.982778	3967.294722	3819.234167
590.501044	3737.922222	3669.960000	3719.718056	3719.718056	3794.961944	3669.960000
590.847357	3659.280222	3615.590222	3661.707444	3661.707444	3616.803833	3642.289667
591.193626	3548.841611	3506.365222	3643.503278	3643.503278	3622.871889	3618.017444
591.539851	3542.773556	3568.259389	3601.026889	3601.026889	3592.531611	3624.085500
591.886030	3406.363667	3440.344778	3380.877833	3380.877833	3429.422278	3513.161444
592.232165	3402.480111	3392.771222	3329.663444	3329.663444	3356.362889	3424.325111
592.578255	3285.973444	3295.682333	3347.867611	3347.867611	3304.177611	3349.081222
592.924300	3309.274778	3299.565889	3306.847556	3306.847556	3294.711444	3402.722833
593.270300	3160.486056	3219.953000	3202.962444	3202.962444	3312.187444	3304.905778
593.616255	3136.456556	3119.466000	3154.660722	3154.660722	3123.106833	3211.700444
593.962166	3081.601333	3119.223278	3018.493556	3018.493556	3047.620222	3068.251611
594.308032	3031.115111	2999.561222	3012.910944	3012.910944	3065.096222	3054.173722
594.653852	3028.445167	3069.707944	3090.339333	3090.339333	3047.862944	3053.931000
594.999628	2913.637556	2984.027000	2947.618667	2947.618667	3121.165056	2982.813389
595.345359	2881.112778	2802.228056	2862.908611	2862.908611	2967.279167	2872.617500
595.691045	2921.890111	2818.733167	2893.977056	2893.977056	2972.861778	2900.045111
596.036686	2827.228444	2773.829556	2859.995944	2859.995944	2846.646222	2798.101778
596.382283	2746.887389	2710.479056	2744.460167	2744.460167	2762.664333	2824.558500
596.727834	2735.236722	2679.410611	2744.945611	2744.945611	2649.070333	2793.490056
597.073340	2664.604556	2710.721778	2827.228444	2827.228444	2698.585667	2743.489278
597.418801	2721.644278	2622.128167	2652.468444	2652.468444	2626.982611	2650.041222
597.764217	2615.817389	2677.711556	2677.711556	2677.711556	2587.904333	2660.721000
598.109589	2554.165944	2543.243444	2588.147056	2588.147056	2565.088444	2597.855944
598.454915	2476.009389	2585.234389	2528.194667	2528.194667	2522.126611	2630.138000
598.800196	2430.620333	2459.747000	2397.852833	2397.852833	2467.028667	2467.028667
599.145432	2468.727722	2462.659667	2499.068000	2499.068000	2486.931889	2467.514111
599.490623	2327.220667	2392.755667	2440.086500	2440.086500	2359.988167	2312.657333
599.835768	2406.590833	2304.647500	2508.534167	2508.534167	2365.328056	2378.677778
600.180869	2291.783222	2320.909889	2387.658500	2387.658500	2385.231278	2317.269056
600.525925	2357.318222	2295.424056	2365.813500	2365.813500	2263.870167	2329.405167
600.870935	2312.414611	2267.511000	2246.879611	2246.879611	2273.579056	2251.734056
601.215900	2194.694333	2261.442944	2217.752944	2217.752944	2271.151833	2284.501556
601.560820	2232.559000	2114.838722	2272.608167	2272.608167	2217.995667	2170.664833
601.905695	2240.083389	2183.043667	2223.092833	2223.092833	2168.480333	2227.947278
602.250525	2132.314722	2174.791111	2132.314722	2132.314722	2168.723056	2151.732500
602.595309	2070.177833	2076.245889	2099.304500	2099.304500	2151.489778	2130.858389
602.940048	2045.420167	2130.372944	2040.565722	2040.565722	2061.197111	2052.701833
603.284742	2059.498056	2027.944167	2127.460278	2127.460278	2046.148333	2097.120000
603.629390	1984.496889	1991.778556	1943.234111	1943.234111	1934.738833	1921.389111
603.973994	1971.632611	1952.214833	2040.808444	2040.808444	2055.371778	2010.468167
604.318552	1911.437500	1913.864722	1834.980000	1834.980000	1970.904444	1961.195556
604.663064	1865.563000	1858.281333	1917.748278	1917.748278	1871.631056	1886.194389
605.007532	1913.379278	1856.339556	1927.942611	1927.942611	1926.729000	1886.679833
605.351954	1934.738833	1884.980778	1921.389111	1921.389111	1920.175500	1976.001611
605.696330	1818.960333	1799.542556	1851.727833	1851.727833	1866.291167	1822.601167
606.040661	1768.231389	1695.414722	1716.046111	1716.046111	1734.250278	1843.475278
606.384947	1790.561833	1709.249889	1754.153500	1754.153500	1695.900167	1756.580722
606.729188	1755.609833	1778.668444	1743.473722	1743.473722	1844.203444	1766.532333
607.073383	1768.716833	1803.911556	1801.484333	1801.484333	1766.289611	1750.512667
607.417532	1638.375000	1628.666111	1719.686944	1719.686944	1643.229444	1682.065000
607.761636	1621.384444	1592.257778	1635.947778	1635.947778	1709.978056	1627.452500
608.105695	1665.559889	1675.268778	1694.686556	1694.686556	1677.696000	1701.968222
608.449708	1675.754222	1687.890333	1652.695611	1652.695611	1720.657833	1613.860056
608.793676	1645.656667	1616.530000	1584.976111	1584.976111	1581.335278	1599.539444
609.137598	1610.461944	1600.753056	1547.354167	1547.354167	1524.295556	1598.325833
609.481474	1581.092556	1578.665333	1521.625611	1521.625611	1572.597278	1467.013111
609.825305	1585.704278	1535.946222	1583.277056	1583.277056	1614.830944	1480.120111
610.169091	1545.169667	1558.519389	1605.850222	1605.850222	1615.559111	1496.625222
610.512831	1486.916333	1508.761333	1600.995778	1600.995778	1518.470222	1531.819944
610.856525	1626.481611	1529.392722	1553.664944	1553.664944	1632.549667	1587.646056
611.200174	1487.401778	1446.139000	1523.810111	1523.810111	1539.587056	1585.704278
611.543777	1512.159444	1456.333333	1521.868333	1521.868333	1457.546944	1530.363611
611.887334	1445.410833	1480.605556	1445.410833	1445.410833	1495.168889	1461.187778
612.230846	1404.876222	1389.099278	1412.157889	1412.157889	1460.702333	1410.944278
612.574312	1416.526889	1433.517444	1404.390778	1404.390778	1425.022167	1384.973000
612.917733	1468.226722	1402.691722	1481.576444	1481.576444	1488.858111	1435.459222
613.261107	1363.613444	1358.759000	1329.632333	1329.632333	1357.545389	1328.418722
613.604436	1308.758222	1278.417944	1311.185444	1311.185444	1329.389611	1235.941556
613.947720	1372.351444	1333.515889	1339.583944	1339.583944	1318.952556	1350.506444
614.290957	1369.924222	1394.196444	1395.410056	1395.410056	1406.332556	1377.205889
614.634149	1339.341222	1340.554833	1358.759000	1358.759000	1288.369556	1267.738167
614.977295	1277.689778	1248.563111	1309.243667	1309.243667	1343.224778	1298.321167
615.320395	1310.457278	1241.281444	1263.126444	1263.126444	1304.389222	1299.534778
615.663450	1180.843611	1228.174444	1264.582778	1264.582778	1263.369167	1308.272778
616.006458	1302.690167	1339.098500	1295.408500	1295.408500	1260.213778	1325.748778
616.349421	1299.292056	1256.815667	1282.301500	1282.301500	1295.651222	1260.456500
616.692338	1282.058778	1239.582389	1200.746833	1200.746833	1256.572944	1257.786556
617.035209	1122.590278	1156.571389	1250.019444	1250.019444	1243.951389	1209.970278
617.378034	1217.737389	1154.629611	1209.242111	1209.242111	1186.183500	1165.552111
617.720813	1154.144167	1151.716944	1163.853056	1163.853056	1216.038333	1169.921111
618.063546	1219.921889	1207.785778	1222.349111	1222.349111	1217.494667	1178.659111
618.406234	1166.280278	1209.970278	1200.261389	1200.261389	1229.388056	1240.310556
618.748875	1103.415222	1165.309389	1253.903000	1253.903000	1223.562722	1115.551333
619.091471	1118.464000	1130.600111	1130.600111	1130.600111	1181.571778	1164.581222
619.434020	1130.842833	1110.211444	1107.784222	1107.784222	1132.056444	1127.202000
619.776524	1005.112722	1085.211056	1009.967167	1009.967167	1059.725222	1064.579667
620.118982	1073.317667	1069.676833	1064.822389	1064.822389	1066.036000	1047.831833
620.461393	1029.870389	1056.569833	1050.501778	1050.501778	1017.734278	1040.792889
620.803759	1006.326333	1107.056056	1013.608000	1013.608000	1051.229944	1071.861333
621.146078	1059.725222	1154.386889	1059.725222	1059.725222	978.413278	1145.891611
621.488351	957.781889	948.073000	1001.471889	1001.471889	1013.608000	1042.734667
621.830579	986.423111	988.850333	1000.986444	1000.986444	983.995889	1034.967556
622.172760	1058.997056	1009.239000	1025.015944	1025.015944	965.549000	1003.170944
622.514895	925.742556	970.646167	950.014778	950.014778	976.714222	979.141444
622.856984	952.442000	951.228389	1021.617833	1021.617833	985.209500	957.296444
623.199027	1001.229167	974.529722	912.635556	912.635556	997.588333	974.529722
623.541024	923.315333	844.430611	875.984500	875.984500	907.538389	833.508111
623.882974	934.480556	957.539167	905.353889	905.353889	984.238611	1030.355833
624.224878	940.305889	947.587556	884.479778	884.479778	928.169778	916.033667
624.566737	895.887722	858.265778	874.042722	874.042722	895.887722	861.906611
624.908549	900.499444	849.527778	967.248056	967.248056	881.081667	871.372778
625.250314	888.363333	845.886944	892.004167	892.004167	905.353889	866.518333
625.592034	792.730778	812.148556	768.458556	768.458556	804.866889	806.080500
625.933707	867.246500	813.847611	872.100944	872.100944	793.216222	830.838167
626.275334	807.536833	865.790167	857.294889	857.294889	840.304333	803.896000
626.616914	726.224889	786.905444	774.769333	774.769333	797.827944	795.400722
626.958449	838.848000	887.392444	905.596611	905.596611	927.441611	857.052167
627.299937	842.003389	804.381444	822.585611	822.585611	814.090333	834.721722
627.641378	788.604500	769.186722	774.041167	774.041167	810.449500	850.498667
627.982774	759.477833	679.379500	747.341722	747.341722	725.496722	771.613944
628.324123	749.768944	810.449500	815.303944	815.303944	754.623389	825.012833
628.665425	666.515222	696.855500	681.078556	681.078556	704.137167	793.944389
629.006681	707.778000	639.815778	677.437722	677.437722	696.855500	682.292167
629.347891	772.342111	726.224889	703.166278	703.166278	711.661556	778.410167
629.689055	656.320889	686.661167	683.020333	683.020333	708.506167	710.933389
630.030171	734.234722	716.030556	674.767778	674.767778	654.136389	649.281944
630.371242	687.146611	744.186333	692.001056	692.001056	738.118278	702.923556
630.712266	681.321278	763.846833	734.720167	734.720167	717.729611	749.283500
631.053243	646.369278	599.038444	681.564000	681.564000	635.446778	611.174556
631.394174	652.680056	721.855889	686.661167	686.661167	628.407833	657.534500
631.735059	658.019944	707.778000	647.097444	647.097444	716.273278	631.320500
632.075897	679.136778	692.486500	664.573444	664.573444	608.747333	629.378722
632.416688	628.893278	579.135222	653.165500	653.165500	570.639944	632.534111
632.757433	643.699333	585.446000	601.222944	601.222944	654.621833	578.164333
633.098131	603.650167	549.037667	608.504611	608.504611	575.737111	613.359056
633.438783	583.746944	620.155278	552.193056	552.193056	623.796111	621.368889
633.779388	597.096667	615.300833	606.805556	606.805556	605.591944	594.669444
634.119946	533.260722	579.377944	545.396833	545.396833	524.765444	539.328778
634.460458	614.572667	620.640722	658.262667	658.262667	625.495167	706.807111
634.800923	557.047500	504.862222	569.183611	569.183611	580.106111	558.261111
635.141342	504.376778	501.949556	504.376778	504.376778	488.599833	603.892889
635.481713	584.717833	618.698944	579.863389	579.863389	526.464500	584.717833
635.822038	541.756000	544.183222	528.406278	528.406278	534.474333	530.833500
636.162317	530.105333	581.077000	457.288667	457.288667	536.173389	556.804778
636.502548	504.134056	522.338222	532.047111	532.047111	456.803222	510.202111
636.842733	592.727667	619.427111	584.232389	584.232389	591.514056	592.727667
637.182871	505.590389	446.123444	544.425944	544.425944	482.531778	510.444833
637.522963	548.066778	511.658444	558.989278	558.989278	595.397611	550.494000
637.863007	466.997556	471.852000	496.124222	496.124222	470.638389	477.920056
638.203005	467.483000	479.619111	440.783556	440.783556	452.919667	548.794944
638.542956	475.007389	437.385444	477.434611	477.434611	439.812667	451.948778
638.882860	513.114778	459.715889	500.978667	500.978667	513.114778	521.610056
639.222717	446.366167	491.269778	453.647833	453.647833	483.988111	434.230056
639.562528	522.095500	509.959389	512.386611	512.386611	458.987722	505.104944
639.902291	429.861056	466.269389	533.018000	533.018000	484.473556	474.764667
640.242008	455.346889	412.870500	414.084111	414.084111	391.025500	452.919667
640.581677	340.296556	458.016833	377.918500	377.918500	391.268222	383.986556
640.921300	433.744611	392.481833	386.413778	386.413778	433.744611	400.977111
641.260876	386.413778	482.289056	436.171833	436.171833	396.122667	501.706833
641.600405	491.269778	424.521167	458.502278	458.502278	413.598667	477.920056
641.939887	444.909833	436.414556	503.163167	503.163167	469.182056	467.968444
642.279322	383.501111	387.141944	418.695833	418.695833	410.200556	361.656111
642.618710	335.684833	390.297333	351.461778	351.461778	390.297333	378.161222
642.958050	389.811889	399.520778	347.335500	347.335500	349.762722	369.180500
643.297344	396.122667	366.996000	337.869333	337.869333	376.704889	432.531000
643.636591	400.734389	378.889389	344.908278	344.908278	399.520778	394.666333
643.975791	420.637611	448.550667	370.879556	370.879556	396.365389	379.374833
644.314944	406.559722	446.608889	387.141944	387.141944	418.695833	430.831944
644.654049	396.850833	416.268611	407.773333	407.773333	415.055000	401.705278
644.993108	318.937000	344.422833	360.199778	360.199778	352.918111	329.859500
645.332119	407.287889	356.316222	324.762333	324.762333	366.025111	366.025111
645.671083	350.490889	332.286722	396.608111	396.608111	346.850056	373.549500
646.010000	412.142333	344.180111	426.705667	426.705667	427.919278	335.684833
646.348870	320.150611	360.199778	356.558944	356.558944	368.695056	320.150611
646.687693	412.142333	397.579000	416.996778	416.996778	429.132889	386.656500
647.026468	386.413778	278.402389	290.538500	290.538500	295.392944	295.392944
647.365197	367.966889	297.577444	292.723000	292.723000	325.490500	287.868556
647.703878	348.306389	344.665556	389.569167	389.569167	326.461389	391.996389
648.042511	339.325667	430.346500	344.180111	344.180111	414.569556	376.947611
648.381098	326.218667	332.286722	377.190333	377.190333	362.627000	358.986167
648.719637	329.616778	383.015667	367.238722	367.238722	378.161222	376.947611
649.058129	253.159278	291.994833	325.975944	325.975944	290.781222	293.208444
649.396574	311.169889	283.256833	300.247389	300.247389	249.275722	345.151000
649.734971	332.772167	309.713556	327.917722	327.917722	310.927167	335.199389
650.073321	271.848889	236.654167	251.217500	251.217500	246.363056	290.053056
650.411624	290.295778	308.499944	309.713556	309.713556	353.403556	349.762722
650.749879	266.023556	285.441333	273.305222	273.305222	270.878000	245.392167
651.088087	333.014889	314.810722	301.461000	301.461000	245.634889	322.092389
651.426248	283.742278	269.178944	288.596722	288.596722	331.073111	309.228111
651.764361	295.392944	234.712389	272.334333	272.334333	240.780444	262.625444
652.102427	265.295389	338.112056	307.771778	307.771778	299.276500	298.062889
652.440445	244.906722	233.984222	332.286722	332.286722	305.587278	298.305611
652.778416	375.734000	295.635667	338.112056	338.112056	344.180111	310.199000
653.116339	298.548333	304.616389	296.121111	296.121111	259.712778	236.654167
653.454215	284.227722	262.382722	321.849667	321.849667	291.509389	321.849667
653.792043	247.091222	204.614833	254.372889	254.372889	241.023167	151.215944
654.129824	258.499167	294.907500	296.121111	296.121111	229.372500	225.731667
654.467557	291.994833	276.217889	277.431500	277.431500	250.732056	261.654556
654.805243	259.227333	237.382333	293.208444	293.208444	199.760389	276.217889
655.142881	304.616389	275.489722	321.606944	321.606944	309.470833	350.733611
655.480472	248.547556	252.188389	215.780056	215.780056	196.362278	237.625056
655.818015	204.857556	252.188389	202.430333	202.430333	252.188389	198.789500
656.155510	238.838667	225.488944	289.810333	289.810333	280.101444	275.247000
656.492958	260.683667	223.061722	229.129778	229.129778	274.033389	261.897278
656.830358	191.750556	151.701389	140.778889	140.778889	243.935833	212.381944
657.167711	247.819389	173.789111	227.188000	227.188000	252.673833	160.439389
657.505015	261.411833	288.111278	258.984611	258.984611	239.566833	245.634889
657.842273	249.518444	279.858722	203.401222	203.401222	285.926778	247.091222
658.179482	225.488944	201.216722	255.829222	255.829222	264.324500	223.061722
658.516644	195.876833	182.527111	194.663222	194.663222	138.837111	152.186833
658.853758	231.799722	219.663611	220.877222	220.877222	236.654167	248.790278
659.190824	228.158889	169.905556	224.518056	224.518056	174.760000	157.769444
659.527842	237.625056	197.575889	184.226167	184.226167	176.944500	208.498389
659.864813	278.645111	224.032611	249.518444	249.518444	220.391778	272.577056
660.201736	280.101444	203.643944	312.868944	312.868944	253.402000	236.411444
660.538611	270.392556	270.392556	248.547556	248.547556	207.284778	265.538111
660.875438	161.653000	179.857167	206.556611	206.556611	219.906333	229.615222
661.212218	198.546778	193.692333	180.342611	180.342611	157.284000	190.051500
661.548950	190.294222	164.808389	192.721444	192.721444	224.275333	179.371722
661.885633	198.546778	210.682889	198.546778	198.546778	275.004278	208.255667
662.222269	184.468889	216.022778	216.022778	216.022778	209.954722	220.877222
662.558857	192.964167	141.992500	243.935833	243.935833	197.818611	191.750556
662.895397	349.277278	380.831167	358.986167	358.986167	360.199778	378.403944
663.231889	193.935056	235.197833	144.177000	144.177000	159.953944	189.080611
663.568334	140.778889	173.546389	127.429167	127.429167	123.788333	148.060556
663.904730	229.129778	221.848111	220.634500	220.634500	272.819778	169.662833
664.241078	176.216333	183.498000	210.197444	210.197444	212.624667	160.439389
664.577378	203.401222	186.410667	230.100667	230.100667	228.887056	164.565667
664.913631	219.178167	214.323722	236.168722	236.168722	251.945667	200.974000
665.249835	185.439778	170.876444	152.672278	152.672278	172.090056	173.303667
665.585991	179.614444	235.440556	197.818611	197.818611	169.905556	216.022778
665.922099	156.798556	179.857167	164.080222	164.080222	142.235222	198.061333
666.258159	138.594389	155.584944	185.925222	185.925222	194.420500	82.768278
666.594171	192.964167	161.410278	203.886667	203.886667	177.187222	195.391389
666.930135	139.565278	190.536944	203.886667	203.886667	133.497222	230.586111
667.266051	163.837500	207.527500	174.760000	174.760000	182.041667	150.487778
667.601919	162.623889	231.799722	161.410278	161.410278	201.459444	177.187222
667.937738	145.633333	158.983056	151.701389	151.701389	166.264722	199.032222
668.273510	215.537333	196.119556	166.992889	166.992889	158.497611	224.032611
668.609233	443.453500	475.007389	458.016833	458.016833	477.434611	422.822111
668.944908	210.682889	244.664000	171.847333	171.847333	199.760389	233.741500
669.280535	161.410278	116.506667	150.487778	150.487778	165.051111	160.196667
669.616114	164.080222	240.537722	159.225778	159.225778	175.002722	195.634111
669.951644	187.381556	218.935444	205.585722	205.585722	150.973222	211.653778
670.287126	134.953556	172.575500	114.322167	114.322167	160.439389	120.390222
670.622560	232.285167	189.808778	225.003500	225.003500	194.663222	167.963778
670.957946	165.536556	120.632944	153.400444	153.400444	194.663222	167.963778
671.293283	207.527500	137.138056	178.400833	178.400833	199.032222	179.614444
671.628572	193.206889	198.061333	267.237167	267.237167	125.244667	216.265500
671.963813	120.632944	90.292667	164.322944	164.322944	161.895722	175.245444
672.299006	205.828444	187.624278	169.420111	169.420111	171.847333	208.255667
672.634150	173.546389	139.565278	122.574722	122.574722	175.973611	175.973611
672.969245	102.428778	133.982667	129.128222	129.128222	119.419333	149.759611
673.304293	114.079444	163.837500	132.283611	132.283611	169.905556	202.673056
673.639291	99.030667	106.312333	105.098722	105.098722	126.943722	97.817056
673.974242	131.555444	152.186833	123.060167	123.060167	79.370167	172.818222
674.309144	125.487389	92.719889	125.487389	125.487389	113.351278	118.205722
674.643998	153.885889	187.867000	209.712000	209.712000	147.817833	157.526722
674.978803	124.516500	146.361500	156.070389	156.070389	156.070389	179.129000
675.313560	116.263944	167.235611	133.254500	133.254500	139.322556	158.740333
675.648268	133.011778	116.021222	208.255667	208.255667	141.507056	90.535389
675.982928	135.196278	91.506278	123.060167	123.060167	124.273778	166.750167
676.317539	128.157333	85.680944	181.556222	181.556222	160.924833	79.612889
676.652101	74.515722	112.137667	87.865444	87.865444	85.438222	123.060167
676.986615	77.671111	89.807222	97.088889	97.088889	114.079444	106.797778
677.321081	137.866222	99.030667	108.739556	108.739556	91.749000	162.138444
677.655498	139.565278	105.584167	133.497222	133.497222	127.429167	188.109722
677.989866	102.428778	70.874889	68.447667	68.447667	146.118778	55.097944
678.324186	123.060167	141.264333	100.001556	100.001556	169.177389	144.905167
678.658457	162.866611	190.779667	147.089667	147.089667	165.293833	158.012167
678.992680	156.070389	169.420111	135.439000	135.439000	85.680944	160.924833
679.326854	81.554667	130.099111	132.526333	132.526333	76.700222	103.399667
679.660979	97.331611	131.312722	131.312722	131.312722	119.176611	113.108556
679.995055	83.496444	158.740333	49.515333	49.515333	77.428389	119.904778
680.329083	121.846556	140.050722	138.837111	138.837111	115.778500	180.099889
680.663062	248.062111	216.508222	132.769056	132.769056	244.421278	267.479889
680.996993	77.913833	104.613278	65.777722	65.777722	82.768278	126.458278
681.330874	142.963389	116.263944	110.195889	110.195889	110.195889	94.418944
681.664707	72.573944	64.078667	66.505889	66.505889	106.555056	122.332000
681.998491	104.613278	127.671889	92.477167	92.477167	113.108556	81.554667
682.332227	97.331611	75.486611	83.981889	83.981889	36.651056	66.991333
682.665913	91.263556	124.031056	96.118000	96.118000	150.730500	156.798556
682.999551	66.505889	44.660889	75.001167	75.001167	112.623111	56.797000
683.333140	101.457889	133.011778	105.098722	105.098722	54.127056	102.671500
683.666680	134.953556	143.448833	96.118000	96.118000	121.603833	107.040500
684.000171	54.855222	69.418556	114.322167	114.322167	99.758833	42.719111
684.333613	71.603056	150.487778	122.574722	122.574722	157.769444	156.555833
684.667006	176.944500	111.409500	118.691167	118.691167	153.885889	117.477556
685.000351	137.623500	153.400444	155.827667	155.827667	93.933500	67.234056
685.333646	97.088889	88.593611	121.361111	121.361111	114.079444	120.147500
685.666893	99.516111	84.952778	104.370556	104.370556	69.175833	100.729722
686.000091	68.690389	111.166778	126.943722	126.943722	99.030667	116.021222
686.333239	79.855611	105.341444	112.623111	112.623111	91.991722	180.585333
686.666339	66.263167	80.826500	125.730111	125.730111	177.915389	67.476778
686.999390	67.476778	96.603444	65.049556	65.049556	66.263167	66.263167
687.332391	79.612889	77.185667	131.798167	131.798167	129.370944	44.418167
687.665344	90.535389	94.176222	119.662056	119.662056	126.943722	74.758444
687.998247	37.621944	31.553889	57.039722	57.039722	87.380000	94.661667
688.331102	72.331222	62.622333	101.457889	101.457889	114.807611	99.030667
688.663907	18.689611	62.379611	72.088500	72.088500	68.447667	68.447667
688.996664	80.826500	57.767889	60.195111	60.195111	97.817056	57.767889
689.329371	109.467722	81.554667	91.263556	91.263556	126.458278	114.322167
689.662029	113.594000	134.225389	112.380389	112.380389	173.060944	159.711222
689.994638	119.419333	109.710444	148.546000	148.546000	160.682111	150.973222
690.327198	77.428389	27.670333	85.923667	85.923667	81.069222	59.224222
690.659708	105.341444	87.137278	59.224222	59.224222	96.846167	96.846167
690.992170	25.000389	22.573167	43.204556	43.204556	55.340667	105.098722
691.324582	153.400444	141.264333	130.341833	130.341833	174.031833	109.710444
691.656945	20.874111	51.214389	57.282444	57.282444	71.845778	52.428000
691.989259	81.069222	136.895333	101.700611	101.700611	129.613667	83.496444
692.321524	89.564500	70.146722	110.195889	110.195889	31.311167	75.001167
692.653739	73.544833	43.204556	136.652611	136.652611	108.739556	136.652611
692.985905	103.399667	68.204944	96.118000	96.118000	88.836333	66.991333
693.318022	108.011389	117.720278	143.206111	143.206111	97.088889	115.293056
693.650089	66.991333	14.806056	91.263556	91.263556	57.282444	51.214389
693.982107	117.477556	37.379222	89.564500	89.564500	60.437833	38.592833
694.314076	84.952778	78.884722	66.748611	66.748611	74.030278	135.924444
694.645996	118.448444	103.885111	116.021222	116.021222	44.418167	146.361500
694.977866	107.525944	86.894556	95.389833	95.389833	113.594000	92.962611
695.309686	114.079444	99.516111	89.807222	89.807222	88.593611	70.389444
695.641458	74.273000	104.613278	96.118000	96.118000	119.176611	110.681333
695.973180	148.546000	120.632944	113.351278	113.351278	133.982667	138.837111
696.304852	68.933111	64.078667	51.942556	51.942556	107.768667	112.623111
696.636475	69.661278	97.574333	80.583778	80.583778	102.428778	85.438222
696.968049	54.855222	120.390222	102.186056	102.186056	149.516889	58.496056
697.299573	123.302889	109.953167	77.185667	77.185667	57.767889	86.894556
697.631047	69.904000	124.516500	105.098722	105.098722	85.680944	56.554278
697.962472	47.816278	49.029889	39.321000	39.321000	56.311556	63.593222
698.293848	79.855611	47.088111	76.214778	76.214778	47.088111	62.865056
698.625174	29.612111	34.466556	21.116833	21.116833	63.593222	41.748222
698.956451	28.883944	31.311167	72.573944	72.573944	79.855611	22.815889
699.287678	75.972056	61.408722	84.467333	84.467333	34.709278	82.040111
699.618855	82.040111	28.641222	17.718722	17.718722	78.399278	102.671500
699.949983	91.749000	37.136500	39.563722	39.563722	99.030667	28.641222
700.281061	130.099111	143.448833	98.545222	98.545222	111.894944	105.826889
700.612089	49.758056	42.476389	92.234444	92.234444	37.621944	16.990556
700.943068	51.942556	4.611722	56.797000	56.797000	33.738389	-12.378833
701.273998	18.204167	69.175833	49.758056	49.758056	3.640833	-2.427222
701.604877	61.408722	-8.980722	20.145944	20.145944	25.000389	41.990944
701.935707	104.613278	93.690778	86.409111	86.409111	82.768278	100.972444
702.266487	105.098722	109.953167	99.030667	99.030667	143.934278	96.603444
702.597218	149.274167	88.593611	125.001944	125.001944	104.370556	148.060556
702.927899	80.341056	103.399667	99.758833	99.758833	85.195500	102.186056
703.258530	37.621944	99.516111	76.457500	76.457500	95.875278	53.398889
703.589111	59.224222	37.379222	110.195889	110.195889	95.632556	50.728944
703.919642	50.000778	86.409111	83.981889	83.981889	62.136889	82.768278
704.250124	19.660500	51.214389	14.806056	14.806056	30.583000	75.486611
704.580556	34.952000	65.292278	45.874500	45.874500	3.398111	64.078667
704.910938	13.835167	21.116833	38.107389	38.107389	45.389056	53.884333
705.241270	20.631389	50.971667	137.138056	137.138056	89.807222	69.175833
705.571553	146.604222	71.360333	94.418944	94.418944	98.059778	62.865056
705.901785	-33.981111	-16.990556	46.117222	46.117222	37.621944	18.204167
706.231968	38.835556	0.000000	2.427222	2.427222	6.068056	41.262778
706.562101	21.845000	-9.708889	1.213611	1.213611	26.699444	-33.981111
706.892184	75.243889	43.690000	77.671111	77.671111	42.476389	83.739167
707.222216	89.321778	26.214000	89.321778	89.321778	72.331222	89.321778
707.552199	147.089667	80.341056	111.894944	111.894944	136.167167	119.176611
707.882132	64.078667	93.205333	51.942556	51.942556	84.710056	66.505889
708.212016	38.835556	87.380000	78.884722	78.884722	48.544444	103.156944
708.541849	10.437056	95.389833	33.495667	33.495667	39.563722	52.913444
708.871632	71.117611	69.904000	52.913444	52.913444	85.680944	38.350111
709.201365	32.524778	36.165611	64.078667	64.078667	16.747833	43.447278
709.531048	52.913444	43.204556	39.563722	39.563722	68.690389	21.359556
709.860681	108.254111	40.291889	39.078278	39.078278	52.428000	116.749389
710.190264	69.904000	72.331222	61.408722	61.408722	102.671500	114.807611
710.519796	99.758833	99.758833	114.322167	114.322167	139.808000	108.254111
710.849279	66.748611	55.826111	8.495278	8.495278	8.495278	31.553889
711.178712	61.408722	128.157333	33.495667	33.495667	66.263167	60.195111
711.508094	-8.252556	62.136889	16.019667	16.019667	54.855222	29.369389
711.837427	4.854444	33.981111	23.058611	23.058611	24.272222	33.981111
712.166709	144.905167	155.827667	137.623500	137.623500	157.041278	129.128222
712.495941	62.136889	-7.038944	60.923278	60.923278	54.855222	75.486611
712.825123	43.690000	58.253333	42.476389	42.476389	49.758056	23.058611
713.154255	98.545222	105.826889	122.817444	122.817444	69.418556	92.477167
713.483336	54.127056	56.554278	83.253722	83.253722	69.904000	20.145944
713.812367	77.913833	1.456333	16.019667	16.019667	57.282444	35.437444
714.141348	70.874889	109.710444	52.670722	52.670722	103.642389	92.719889
714.470279	83.981889	111.894944	90.049944	90.049944	134.953556	91.263556
714.799159	82.525556	15.776944	54.612500	54.612500	54.612500	10.922500
715.127990	47.573556	24.514944	22.087722	22.087722	5.097167	36.651056
715.456769	96.603444	72.331222	78.399278	78.399278	33.495667	12.864278
715.785499	141.992500	61.894167	64.321389	64.321389	103.156944	77.671111
716.114178	28.641222	78.399278	29.854833	29.854833	44.418167	67.476778
716.442807	52.428000	30.583000	20.874111	20.874111	94.904389	19.660500
716.771385	89.079056	100.001556	34.466556	34.466556	76.942944	109.710444
717.099914	51.214389	0.242722	-2.184500	-2.184500	68.204944	12.378833
717.428391	104.613278	76.700222	99.758833	99.758833	63.350500	96.118000
717.756819	43.447278	34.952000	77.428389	77.428389	45.874500	47.088111
718.085195	-16.019667	33.738389	5.825333	5.825333	67.719500	11.893389
718.413522	49.758056	70.389444	84.952778	84.952778	97.088889	105.584167
718.741798	29.369389	19.660500	54.855222	54.855222	-17.961444	82.768278
719.070023	54.855222	22.087722	0.242722	0.242722	31.796611	62.136889
719.398198	134.468111	84.710056	51.942556	51.942556	100.487000	75.001167
719.726323	85.438222	85.438222	28.398500	28.398500	40.534611	83.011000
720.054397	96.846167	140.536167	84.710056	84.710056	142.963389	78.642000
720.382420	122.332000	94.418944	79.855611	79.855611	113.836722	79.855611
720.710393	99.273389	102.914222	127.186444	127.186444	111.409500	125.972833
721.038316	35.437444	11.165222	36.651056	36.651056	33.010222	51.214389
721.366188	-21.359556	44.175444	51.457111	51.457111	17.476000	62.379611
721.694009	-5.825333	25.728556	-3.398111	-3.398111	29.369389	-26.456722
722.021779	0.000000	32.767500	41.262778	41.262778	13.349722	70.389444
722.349499	97.088889	46.117222	71.603056	71.603056	58.253333	77.671111
722.677169	69.418556	64.564111	59.709667	59.709667	90.049944	-34.952000
723.004787	25.243111	25.243111	59.224222	59.224222	72.573944	7.038944
723.332355	17.718722	50.486222	11.650667	11.650667	23.786778	40.777333
723.659873	49.758056	81.311944	32.767500	32.767500	8.495278	-3.640833
723.987339	31.311167	59.224222	93.205333	93.205333	37.379222	37.379222
724.314755	83.496444	59.224222	28.883944	28.883944	45.874500	-5.097167
724.642120	91.991722	95.632556	79.855611	79.855611	8.252556	78.642000
724.969435	75.001167	73.787556	99.273389	99.273389	54.369778	84.710056
725.296699	79.855611	-30.583000	-2.669944	-2.669944	49.515333	61.651444
725.623911	127.914611	137.623500	98.787944	98.787944	132.769056	46.602667
725.951074	21.359556	20.145944	92.962611	92.962611	26.214000	21.359556
726.278185	64.078667	71.360333	47.088111	47.088111	121.118389	96.846167
726.605245	128.400056	96.846167	89.564500	89.564500	84.710056	62.865056
726.932255	115.050333	75.001167	72.573944	72.573944	121.118389	90.778111
727.259214	48.544444	50.971667	9.708889	9.708889	60.680556	52.185278
727.586122	61.651444	48.301722	28.883944	28.883944	47.088111	73.787556
727.912979	22.087722	14.806056	11.165222	11.165222	54.855222	71.845778
728.239785	133.739944	126.458278	109.467722	109.467722	127.671889	113.108556
728.566540	26.942167	28.155778	48.787167	48.787167	29.369389	52.428000
728.893245	21.116833	38.107389	42.961833	42.961833	80.583778	29.612111
729.219898	50.728944	67.719500	76.214778	76.214778	104.127833	94.418944
729.546501	-3.883556	2.184500	25.243111	25.243111	0.970889	50.728944
729.873052	-18.689611	37.136500	10.437056	10.437056	67.476778	44.418167
730.199552	91.506278	120.632944	143.691556	143.691556	140.050722	147.332389
730.526002	43.690000	49.758056	80.098333	80.098333	37.621944	75.243889
730.852400	65.049556	74.758444	26.214000	26.214000	83.253722	26.214000
731.178748	46.117222	74.030278	10.922500	10.922500	86.166389	67.962222
731.505044	14.563333	37.621944	-19.417778	-19.417778	46.117222	12.136111
731.831290	-1.213611	-9.708889	15.776944	15.776944	-9.708889	16.990556
732.157484	80.341056	39.078278	92.477167	92.477167	69.418556	64.564111
732.483627	71.360333	56.797000	3.398111	3.398111	39.806444	-16.019667
732.809719	-4.126278	26.214000	71.117611	71.117611	-13.835167	67.476778
733.135760	43.204556	72.331222	33.495667	33.495667	52.913444	65.049556
733.461750	62.622333	39.563722	9.223444	9.223444	6.796222	65.049556
733.787688	61.651444	65.292278	82.282833	82.282833	30.097556	37.379222
734.113576	22.087722	34.223833	45.146333	45.146333	26.942167	19.660500
734.439412	73.544833	96.603444	69.904000	69.904000	54.127056	34.709278
734.765197	62.865056	106.555056	67.719500	67.719500	81.069222	61.651444
735.090931	66.263167	51.699833	25.000389	25.000389	57.767889	71.117611
735.416614	50.000778	8.738000	45.146333	45.146333	3.883556	-0.970889
735.742245	73.302111	101.215167	66.020444	66.020444	152.186833	63.593222
736.067825	129.613667	170.876444	136.895333	136.895333	158.740333	142.963389
736.393354	100.972444	115.535778	85.195500	85.195500	122.817444	96.118000
736.718832	53.156167	82.282833	101.700611	101.700611	106.555056	105.341444
737.044258	-11.650667	1.699056	16.262389	16.262389	23.544056	30.825722
737.369633	-30.583000	11.893389	33.738389	33.738389	-29.369389	31.311167
737.694957	32.039333	52.670722	16.262389	16.262389	42.961833	62.379611
738.020229	95.632556	47.088111	19.175056	19.175056	51.942556	30.097556
738.345450	50.243500	22.330444	18.689611	18.689611	41.748222	36.893778
738.670619	61.408722	97.817056	54.127056	54.127056	66.263167	8.009833
738.995738	50.728944	82.282833	36.165611	36.165611	68.933111	50.728944
739.320804	106.555056	118.691167	125.972833	125.972833	98.059778	118.691167
739.645820	33.010222	29.369389	-16.747833	-16.747833	-15.534222	36.651056
739.970784	55.826111	74.030278	26.699444	26.699444	55.826111	24.272222
740.295696	32.282056	-18.689611	-7.767111	-7.767111	-15.048778	15.291500
740.620557	76.457500	48.544444	106.797778	106.797778	95.875278	35.194722
740.945366	34.223833	48.787167	37.864667	37.864667	86.409111	39.078278
741.270124	66.991333	71.845778	100.972444	100.972444	83.981889	58.496056
741.594831	61.408722	65.049556	48.059000	48.059000	85.680944	99.030667
741.919486	26.942167	31.796611	25.728556	25.728556	79.127444	33.010222
742.244089	35.437444	36.651056	103.399667	103.399667	47.573556	46.359944
742.568641	22.573167	44.418167	41.990944	41.990944	101.457889	12.864278
742.893141	23.058611	98.302500	-6.068056	-6.068056	8.495278	46.117222
743.217590	138.837111	102.428778	141.264333	141.264333	102.428778	91.506278
743.541987	113.351278	115.778500	85.438222	85.438222	89.079056	119.419333
743.866332	24.272222	84.952778	36.408333	36.408333	27.913056	32.767500
744.190626	-19.903222	23.786778	41.990944	41.990944	16.505111	44.418167
744.514868	83.739167	60.680556	25.485833	25.485833	44.903611	38.835556
744.839058	87.622722	58.496056	52.428000	52.428000	30.583000	100.972444
745.163197	70.874889	72.088500	30.825722	30.825722	70.874889	63.593222
745.487284	266.023556	273.305222	276.946056	276.946056	228.401611	267.237167
745.811320	104.856000	121.846556	23.544056	23.544056	74.515722	81.797389
746.135303	87.622722	98.545222	52.428000	52.428000	119.176611	120.390222
746.459235	8.980722	66.020444	-1.941778	-1.941778	34.466556	91.506278
746.783115	40.291889	37.864667	36.651056	36.651056	19.660500	42.719111
747.106944	4.611722	-3.883556	-17.233278	-17.233278	5.825333	49.515333
747.430720	15.534222	15.534222	41.020056	41.020056	11.893389	41.020056
747.754445	-4.611722	82.768278	39.078278	39.078278	97.331611	46.359944
748.078118	35.437444	110.681333	81.554667	81.554667	104.613278	58.496056
748.401739	61.894167	48.544444	52.185278	52.185278	25.485833	44.903611
748.725308	99.758833	97.331611	60.923278	60.923278	69.418556	98.545222
749.048825	1.941778	22.573167	43.204556	43.204556	45.631778	26.214000
749.372291	40.534611	13.835167	50.243500	50.243500	86.651833	18.689611
749.695705	63.835944	95.389833	44.418167	44.418167	55.340667	5.582611
750.019066	-12.378833	-14.806056	0.970889	0.970889	13.107000	-53.641611
750.342376	36.893778	46.602667	34.466556	34.466556	16.262389	25.971278
750.665634	52.185278	83.739167	74.030278	74.030278	54.612500	43.690000
750.988840	50.486222	83.253722	46.845389	46.845389	25.000389	45.631778
751.311994	74.030278	20.631389	52.185278	52.185278	-1.213611	-3.640833
751.635096	57.525167	41.748222	46.602667	46.602667	27.184889	67.234056
751.958146	11.893389	81.069222	-18.446889	-18.446889	3.398111	33.738389
752.281143	52.428000	-25.243111	-20.388667	-20.388667	-13.107000	37.864667
752.604089	25.485833	63.107778	97.088889	97.088889	78.884722	48.544444
752.926983	8.009833	6.796222	52.913444	52.913444	4.369000	21.359556
753.249825	41.990944	22.573167	49.272611	49.272611	8.009833	57.767889
753.572615	-3.155389	24.757667	49.029889	49.029889	55.097944	91.506278
753.895352	14.563333	20.631389	23.058611	23.058611	49.758056	-27.913056
754.218038	136.409889	120.632944	144.905167	144.905167	171.604611	108.496833
754.540671	66.991333	63.350500	56.068833	56.068833	56.068833	93.690778
754.863252	48.301722	139.322556	27.670333	27.670333	64.078667	70.146722
755.185781	50.243500	44.175444	21.116833	21.116833	74.515722	69.661278
755.508258	107.525944	147.575111	65.049556	65.049556	126.943722	129.370944
755.830683	77.428389	47.088111	26.456722	26.456722	13.107000	-18.446889
756.153056	26.456722	62.865056	26.456722	26.456722	38.592833	2.184500
756.475376	56.797000	21.602278	30.097556	30.097556	45.874500	8.252556
756.797644	-2.184500	5.097167	-5.825333	-5.825333	-15.534222	-47.088111
757.119860	55.097944	70.874889	58.738778	58.738778	15.048778	17.476000
757.442023	96.118000	91.263556	149.516889	149.516889	155.584944	137.380778
757.764135	-9.466167	-13.107000	70.632167	70.632167	9.951611	35.437444
758.086194	113.836722	44.660889	116.263944	116.263944	124.759222	101.700611
758.408201	65.049556	38.350111	-8.980722	-8.980722	54.127056	12.864278
758.730155	100.244278	111.166778	68.690389	68.690389	40.777333	118.448444
759.052057	92.962611	150.002333	120.875667	120.875667	100.244278	96.603444
759.373907	-21.116833	16.505111	28.641222	28.641222	45.631778	-6.553500
759.695704	65.049556	27.427611	28.641222	28.641222	50.486222	0.728167
760.017449	-14.077889	-12.864278	34.466556	34.466556	0.485444	19.903222
760.339142	-30.340278	-38.835556	78.884722	78.884722	-12.136111	12.136111
760.660782	67.962222	63.107778	52.185278	52.185278	65.535000	46.117222
760.982370	131.312722	119.176611	59.709667	59.709667	122.817444	65.777722
761.303905	-1.213611	91.020833	31.553889	31.553889	78.884722	27.913056
761.625388	86.894556	60.195111	60.195111	60.195111	65.049556	82.040111
761.946818	70.389444	55.826111	63.107778	63.107778	16.990556	32.767500
762.268196	48.787167	35.437444	53.641611	53.641611	47.573556	53.641611
762.589521	-39.321000	-7.767111	-11.407944	-11.407944	10.437056	-30.825722
762.910794	16.019667	109.467722	73.059389	73.059389	51.214389	29.369389
763.232015	11.407944	-27.427611	0.485444	0.485444	47.816278	30.825722
763.553182	18.932333	-15.048778	52.913444	52.913444	22.573167	-0.485444
763.874298	29.612111	56.311556	-1.941778	-1.941778	42.961833	39.321000
764.195360	71.845778	48.787167	48.787167	48.787167	92.477167	28.155778
764.516370	100.729722	26.699444	44.903611	44.903611	101.943333	37.621944
764.837328	107.283222	119.419333	107.283222	107.283222	80.583778	140.050722
765.158233	128.400056	84.710056	68.933111	68.933111	85.923667	99.273389
765.479085	33.495667	40.777333	-7.767111	-7.767111	11.650667	25.000389
765.799885	33.981111	41.262778	42.476389	42.476389	30.340278	12.136111
766.120631	67.234056	58.738778	63.593222	63.593222	42.961833	61.166000
766.441326	78.884722	94.661667	50.971667	50.971667	82.525556	103.156944
766.761967	65.292278	-6.310778	64.078667	64.078667	55.583389	65.292278
767.082556	22.087722	34.223833	52.428000	52.428000	16.019667	-10.679778
767.403092	117.477556	118.691167	122.332000	122.332000	119.904778	153.885889
767.723575	73.302111	75.729333	13.835167	13.835167	83.011000	56.311556
768.044006	46.117222	40.049167	75.243889	75.243889	67.962222	44.903611
768.364384	96.118000	104.613278	91.263556	91.263556	102.186056	90.049944
768.684709	174.760000	82.525556	78.884722	78.884722	84.952778	72.816667
769.004981	47.330833	-23.058611	66.748611	66.748611	37.621944	18.204167
769.325200	28.641222	51.699833	21.359556	21.359556	26.214000	46.845389
769.645367	43.690000	57.039722	6.068056	6.068056	21.845000	20.631389
769.965481	101.457889	106.312333	58.981500	58.981500	89.321778	80.826500
770.285541	64.564111	9.951611	83.981889	83.981889	53.641611	33.010222
770.605549	81.797389	47.816278	84.224611	84.224611	59.952389	15.048778
770.925504	-26.456722	-32.524778	8.738000	8.738000	-10.679778	6.310778
771.245407	37.379222	0.970889	71.360333	71.360333	28.883944	55.583389
771.565256	33.495667	-6.553500	26.214000	26.214000	61.408722	23.786778
771.885052	60.195111	35.922889	58.981500	58.981500	130.584556	56.554278
772.204795	63.350500	60.923278	41.505500	41.505500	51.214389	13.592444
772.524486	3.398111	28.883944	51.942556	51.942556	39.806444	-8.738000
772.844123	74.515722	13.835167	58.738778	58.738778	42.961833	11.407944
773.163708	52.428000	58.496056	128.885500	128.885500	131.312722	50.000778
773.483239	55.340667	23.786778	-24.757667	-24.757667	55.340667	-22.330444
773.802717	162.138444	146.361500	177.915389	177.915389	194.905944	228.887056
774.122142	63.350500	36.651056	48.787167	48.787167	22.087722	68.204944
774.441515	1.941778	-19.903222	10.437056	10.437056	-12.621556	17.718722
774.760834	18.204167	-4.854444	14.563333	14.563333	13.349722	61.894167
775.080100	77.185667	56.554278	67.476778	67.476778	68.690389	58.981500
775.399313	55.583389	27.670333	49.515333	49.515333	42.233667	4.611722
775.718473	79.127444	58.496056	87.622722	87.622722	39.078278	100.972444
776.037579	-5.339889	-1.699056	78.399278	78.399278	25.000389	22.573167
776.356633	22.330444	19.903222	34.466556	34.466556	6.553500	25.971278
776.675633	37.621944	46.117222	4.854444	4.854444	46.117222	92.234444
776.994580	58.981500	43.204556	80.826500	80.826500	61.408722	79.612889
777.313474	83.496444	51.942556	49.515333	49.515333	77.428389	119.904778
777.632315	-5.339889	14.077889	15.291500	15.291500	26.214000	21.359556
777.951103	33.010222	-0.970889	7.524389	7.524389	70.632167	125.244667
778.269837	42.476389	65.535000	25.485833	25.485833	1.213611	74.030278
778.588518	-28.641222	11.407944	56.311556	56.311556	25.971278	39.321000
778.907146	-10.437056	-4.369000	-21.359556	-21.359556	29.612111	22.330444
779.225720	6.068056	31.553889	15.776944	15.776944	21.845000	58.253333
779.544242	6.068056	20.631389	-3.640833	-3.640833	10.922500	30.340278
779.862709	10.922500	49.758056	65.535000	65.535000	32.767500	81.311944
780.181124	56.554278	92.962611	26.214000	26.214000	31.068444	44.418167
780.499485	1.941778	10.437056	-7.767111	-7.767111	18.932333	26.214000
780.817793	34.709278	35.922889	56.554278	56.554278	46.845389	0.728167
781.136047	52.428000	41.505500	51.214389	51.214389	20.874111	60.923278
781.454248	77.428389	75.001167	50.728944	50.728944	50.728944	82.282833
781.772396	33.495667	54.127056	38.350111	38.350111	65.049556	15.291500
782.090490	-4.611722	-7.038944	-13.107000	-13.107000	51.214389	-8.252556
782.408531	-11.407944	-11.407944	-11.407944	-11.407944	-21.116833	-7.767111
782.726518	17.233278	52.428000	47.573556	47.573556	59.709667	63.350500
783.044452	5.097167	17.233278	-2.184500	-2.184500	-7.038944	11.165222
783.362333	11.893389	20.388667	0.970889	0.970889	32.524778	39.806444
783.680159	66.263167	54.127056	69.904000	69.904000	34.709278	37.136500
783.997933	60.437833	79.855611	98.059778	98.059778	98.059778	130.827278
784.315653	20.631389	47.330833	37.621944	37.621944	89.807222	32.767500
784.633319	23.058611	10.922500	-14.563333	-14.563333	16.990556	18.204167
784.950932	21.359556	101.457889	38.350111	38.350111	63.835944	106.312333
785.268491	62.622333	55.340667	78.399278	78.399278	77.185667	52.913444
785.585996	68.204944	-36.165611	22.087722	22.087722	23.301333	-26.456722
785.903448	-2.184500	70.632167	69.418556	69.418556	31.796611	37.864667
786.220847	26.699444	-1.213611	26.699444	26.699444	26.699444	66.748611
786.538191	95.389833	62.622333	20.145944	20.145944	74.758444	34.709278
786.855482	54.612500	46.117222	46.117222	46.117222	48.544444	77.671111
787.172720	3.398111	42.233667	64.078667	64.078667	55.583389	53.156167
787.489903	53.156167	16.747833	38.592833	38.592833	75.001167	39.806444
787.807033	26.942167	37.864667	54.855222	54.855222	19.660500	-49.515333
788.124110	95.147111	45.389056	38.107389	38.107389	36.893778	2.912667
788.441132	78.399278	44.418167	56.554278	56.554278	43.204556	39.563722
788.758101	107.283222	55.097944	45.389056	45.389056	93.933500	112.137667
789.075016	88.350889	84.710056	59.224222	59.224222	76.214778	79.855611
789.391877	-6.310778	4.611722	5.825333	5.825333	30.097556	-31.796611
789.708685	-10.437056	21.116833	16.262389	16.262389	-4.369000	7.767111
790.025438	-4.126278	37.136500	60.195111	60.195111	14.077889	4.369000
790.342138	-0.728167	29.612111	10.194333	10.194333	56.311556	58.738778
790.658784	-14.806056	7.038944	19.175056	19.175056	11.893389	-9.951611
790.975376	53.398889	55.826111	14.563333	14.563333	49.758056	27.913056
791.291915	77.913833	53.641611	82.768278	82.768278	51.214389	28.155778
791.608399	24.514944	30.583000	8.738000	8.738000	0.242722	36.651056
791.924830	-15.534222	0.242722	3.883556	3.883556	-32.524778	-5.825333
792.241206	6.310778	-0.970889	41.505500	41.505500	-5.825333	9.951611
792.557529	16.262389	96.360722	16.262389	16.262389	64.806833	50.243500
792.873798	40.291889	13.592444	53.641611	53.641611	23.301333	40.291889
793.190012	17.233278	41.505500	83.981889	83.981889	24.514944	50.000778
793.506173	32.282056	-7.767111	43.204556	43.204556	63.835944	23.786778
793.822280	-36.165611	-5.825333	31.796611	31.796611	50.000778	16.019667
794.138333	-4.369000	67.234056	42.961833	42.961833	8.980722	29.612111
794.454332	54.855222	88.836333	82.768278	82.768278	90.049944	102.186056
794.770277	43.204556	82.040111	63.835944	63.835944	50.486222	56.554278
795.086167	39.563722	56.554278	52.913444	52.913444	78.399278	91.749000
795.402004	-30.583000	9.466167	50.728944	50.728944	-6.310778	60.437833
795.717787	50.971667	27.913056	69.175833	69.175833	33.981111	44.903611
796.033515	-25.000389	10.194333	-16.505111	-16.505111	11.407944	21.116833
796.349190	28.398500	4.126278	-12.864278	-12.864278	-6.796222	63.593222
796.664810	77.185667	52.913444	75.972056	75.972056	83.253722	66.263167
796.980376	64.564111	20.874111	5.097167	5.097167	66.991333	40.291889
797.295888	71.360333	56.797000	58.010611	58.010611	25.243111	54.369778
797.611346	101.700611	43.447278	33.738389	33.738389	38.592833	39.806444
797.926750	58.981500	83.253722	49.272611	49.272611	54.127056	56.554278
798.242099	78.156556	76.942944	131.555444	131.555444	57.525167	102.428778
798.557394	104.856000	73.302111	118.205722	118.205722	102.428778	79.370167
798.872635	58.253333	-21.845000	49.758056	49.758056	-2.427222	82.525556
799.187822	3.883556	14.806056	-7.038944	-7.038944	26.942167	-16.747833
799.502955	52.185278	38.835556	66.748611	66.748611	82.525556	71.603056
799.818033	49.029889	34.466556	56.311556	56.311556	67.234056	58.738778
800.133057	33.981111	74.030278	4.854444	4.854444	46.117222	23.058611
800.448027	63.835944	91.749000	55.340667	55.340667	168.206500	41.990944
800.762942	59.224222	11.893389	-30.583000	-30.583000	24.029500	79.855611
801.077803	44.660889	20.388667	31.311167	31.311167	73.787556	21.602278
801.392610	25.728556	-43.447278	12.378833	12.378833	60.923278	-38.592833
801.707362	63.107778	76.457500	99.516111	99.516111	86.166389	67.962222
802.022060	13.835167	57.525167	72.088500	72.088500	34.466556	33.252944
802.336703	77.185667	72.331222	94.176222	94.176222	117.234833	75.972056
802.651292	79.127444	66.991333	0.242722	0.242722	81.554667	-5.825333
802.965827	38.835556	9.708889	35.194722	35.194722	48.544444	24.272222
803.280307	50.486222	10.437056	45.631778	45.631778	20.145944	34.709278
803.594733	67.962222	140.778889	36.408333	36.408333	36.408333	36.408333
803.909104	42.719111	23.301333	75.486611	75.486611	31.796611	-43.447278
804.223421	13.835167	34.466556	28.398500	28.398500	61.166000	51.457111
804.537684	-18.446889	3.398111	7.038944	7.038944	31.311167	-0.242722
804.851891	15.291500	46.845389	4.369000	4.369000	44.418167	31.068444
805.166045	4.611722	47.088111	53.156167	53.156167	44.660889	33.738389
805.480143	47.573556	68.204944	74.273000	74.273000	115.535778	98.545222
805.794188	50.971667	98.302500	31.553889	31.553889	46.117222	83.739167
806.108177	42.476389	-13.349722	-7.281667	-7.281667	-18.204167	31.553889
806.422112	173.060944	158.497611	95.389833	95.389833	147.575111	158.497611
806.735993	62.136889	46.359944	28.155778	28.155778	-8.252556	19.660500
807.049818	104.127833	81.069222	83.496444	83.496444	99.273389	119.904778
807.363590	-24.029500	73.059389	22.087722	22.087722	-3.398111	47.573556
807.677306	90.292667	74.515722	6.553500	6.553500	64.806833	73.302111
807.990968	27.184889	-14.077889	39.321000	39.321000	5.339889	53.884333
808.304575	45.389056	75.729333	63.593222	63.593222	57.525167	96.360722
808.618128	-16.990556	66.748611	53.398889	53.398889	14.563333	104.370556
808.931625	117.963000	93.690778	70.632167	70.632167	94.904389	52.428000
809.245068	22.815889	33.738389	3.398111	3.398111	37.379222	-8.738000
809.558457	24.029500	2.184500	-9.951611	-9.951611	-43.932722	-14.806056
809.871790	96.118000	79.127444	45.146333	45.146333	73.059389	86.409111
810.185069	54.612500	63.107778	36.408333	36.408333	99.516111	-3.640833
810.498293	117.234833	66.263167	62.622333	62.622333	43.204556	122.089278
810.811462	19.417778	52.185278	69.175833	69.175833	23.058611	24.272222
811.124576	4.854444	50.971667	7.281667	7.281667	95.875278	37.621944
811.437636	24.272222	33.981111	40.049167	40.049167	72.816667	1.213611
811.750640	41.505500	63.350500	22.087722	22.087722	16.019667	54.855222
812.063590	59.466944	41.262778	-42.476389	-42.476389	9.708889	9.708889
812.376485	47.573556	31.796611	57.282444	57.282444	46.359944	41.505500
812.689325	67.234056	25.971278	52.670722	52.670722	30.825722	11.407944
813.002110	81.797389	52.670722	73.302111	73.302111	61.166000	59.952389
813.314840	67.962222	10.922500	92.234444	92.234444	32.767500	49.758056
813.627516	50.971667	63.107778	32.767500	32.767500	12.136111	27.913056
813.940136	18.204167	72.816667	16.990556	16.990556	-16.990556	-19.417778
814.252701	24.029500	67.719500	100.487000	100.487000	24.029500	42.233667
814.565212	22.573167	55.340667	75.972056	75.972056	88.108167	45.631778
814.877667	46.359944	43.932722	30.583000	30.583000	-28.883944	-44.660889
815.190067	86.409111	115.535778	65.777722	65.777722	99.758833	109.467722
815.502413	51.942556	73.787556	67.719500	67.719500	61.651444	122.332000
815.814703	57.282444	13.592444	75.486611	75.486611	76.700222	90.049944
816.126938	53.884333	73.302111	86.651833	86.651833	66.020444	79.370167
816.439118	21.602278	77.428389	70.146722	70.146722	-2.669944	84.710056
816.751243	59.952389	39.321000	52.670722	52.670722	51.457111	34.466556
817.063313	79.370167	91.506278	53.884333	53.884333	104.856000	138.837111
817.375328	37.864667	19.660500	48.787167	48.787167	39.078278	71.845778
817.687287	78.884722	77.671111	58.253333	58.253333	21.845000	76.457500
817.999192	41.990944	91.749000	43.204556	43.204556	18.932333	52.913444
818.311041	21.845000	84.952778	64.321389	64.321389	43.690000	40.049167
818.622835	13.349722	53.398889	-1.213611	-1.213611	42.476389	81.311944
818.934574	66.020444	51.457111	36.893778	36.893778	15.048778	56.311556
819.246258	9.223444	-8.980722	-16.262389	-16.262389	-0.485444	-2.912667
819.557887	17.718722	39.563722	-45.389056	-45.389056	3.155389	34.709278
819.869460	59.709667	54.855222	75.486611	75.486611	25.728556	92.477167
820.180978	45.389056	22.330444	-0.728167	-0.728167	55.097944	8.980722
820.492441	-24.029500	22.087722	-13.107000	-13.107000	-3.398111	23.301333
820.803848	44.175444	68.447667	75.729333	75.729333	28.398500	57.525167
821.115200	108.496833	49.029889	25.971278	25.971278	64.806833	50.243500
821.426497	64.806833	50.243500	42.961833	42.961833	62.379611	67.234056
821.737739	9.466167	5.825333	21.602278	21.602278	4.611722	58.010611
822.048925	101.700611	43.447278	70.146722	70.146722	22.815889	33.738389
822.360056	56.797000	61.651444	51.942556	51.942556	48.301722	43.447278
822.671131	14.806056	39.078278	52.428000	52.428000	85.195500	17.233278
822.982151	-5.582611	23.544056	-6.796222	-6.796222	-11.650667	-22.573167
823.293116	-40.291889	-33.010222	-16.019667	-16.019667	27.670333	-65.777722
823.604025	6.796222	4.369000	12.864278	12.864278	28.641222	1.941778
823.914879	22.087722	42.719111	20.874111	20.874111	35.437444	25.728556
824.225677	-23.786778	24.757667	-17.718722	-17.718722	15.048778	-49.272611
824.536420	-16.747833	70.632167	62.136889	62.136889	23.301333	36.651056
824.847107	37.136500	62.622333	65.049556	65.049556	61.408722	43.204556
825.157739	29.854833	58.981500	66.263167	66.263167	26.214000	11.650667
825.468315	-5.582611	33.252944	-0.728167	-0.728167	5.339889	-31.068444
825.778836	50.000778	60.923278	131.312722	131.312722	86.409111	80.341056
826.089301	71.845778	51.214389	18.446889	18.446889	79.127444	18.446889
826.399711	63.835944	83.253722	39.563722	39.563722	9.223444	54.127056
826.710065	64.078667	64.078667	28.883944	28.883944	27.670333	45.874500
827.020363	53.156167	87.137278	95.632556	95.632556	81.069222	22.815889
827.330606	22.087722	-19.175056	-45.874500	-45.874500	9.951611	2.669944
827.640794	8.980722	10.194333	21.116833	21.116833	-3.155389	6.553500
827.950925	10.679778	70.146722	2.184500	2.184500	27.670333	32.524778
828.261001	111.166778	40.777333	94.176222	94.176222	50.486222	108.739556
828.571022	16.990556	32.767500	48.544444	48.544444	58.253333	44.903611
828.880986	21.602278	32.524778	51.942556	51.942556	27.670333	28.883944
829.190895	-14.806056	-40.291889	55.583389	55.583389	54.369778	53.156167
829.500749	42.476389	60.680556	103.156944	103.156944	131.070000	36.408333
829.810546	62.379611	74.515722	32.039333	32.039333	62.379611	42.961833
830.120288	42.233667	33.738389	36.165611	36.165611	54.369778	9.466167
830.429974	51.699833	6.796222	48.059000	48.059000	97.817056	71.117611
830.739604	61.894167	99.516111	80.098333	80.098333	20.631389	84.952778
831.049179	99.758833	33.010222	57.282444	57.282444	60.923278	132.526333
831.358697	72.088500	87.865444	17.476000	17.476000	47.816278	50.243500
831.668160	13.592444	50.000778	60.923278	60.923278	39.078278	54.855222
831.977567	-8.980722	39.563722	34.709278	34.709278	27.427611	54.127056
832.286918	80.098333	105.584167	81.311944	81.311944	64.321389	53.398889
832.596213	10.194333	4.126278	22.330444	22.330444	15.048778	53.884333
832.905453	38.350111	15.291500	-13.835167	-13.835167	66.263167	43.204556
833.214636	4.126278	11.407944	28.398500	28.398500	23.544056	-16.505111
833.523764	59.224222	2.184500	45.874500	45.874500	-6.310778	21.602278
833.832836	59.709667	23.301333	92.477167	92.477167	56.068833	46.359944
834.141851	97.817056	74.758444	46.845389	46.845389	37.136500	50.486222
834.450811	-26.942167	-20.874111	-7.524389	-7.524389	19.175056	-22.087722
834.759715	-21.602278	24.514944	-19.175056	-19.175056	24.514944	29.369389
835.068563	13.835167	62.379611	58.738778	58.738778	-8.009833	-23.786778
835.377355	74.515722	66.020444	-3.155389	-3.155389	-41.990944	-15.291500
835.686091	17.233278	20.874111	46.359944	46.359944	-21.602278	45.146333
835.994770	-22.330444	23.786778	37.136500	37.136500	-24.757667	52.913444
836.303394	103.399667	39.078278	71.845778	71.845778	102.186056	45.146333
836.611962	44.660889	87.137278	53.156167	53.156167	77.428389	38.592833
836.920473	15.048778	62.379611	-50.486222	-50.486222	50.243500	28.398500
837.228929	12.621556	38.107389	-14.077889	-14.077889	17.476000	-14.077889
837.537328	34.709278	35.922889	-2.912667	-2.912667	-28.398500	12.864278
837.845672	79.370167	125.487389	120.632944	120.632944	97.574333	116.992111
838.153959	30.825722	13.835167	-0.728167	-0.728167	44.175444	-4.369000
838.462190	63.350500	69.418556	76.700222	76.700222	60.923278	36.651056
838.770365	39.806444	50.728944	83.496444	83.496444	32.524778	122.332000
839.078483	86.409111	56.068833	62.136889	62.136889	74.273000	46.359944
839.386546	23.058611	20.631389	42.476389	42.476389	20.631389	7.281667
839.694552	54.369778	62.865056	-19.660500	-19.660500	-31.796611	28.883944
840.002502	46.602667	109.710444	73.302111	73.302111	74.515722	34.466556
840.310396	44.175444	70.874889	49.029889	49.029889	42.961833	18.689611
840.618233	-33.010222	5.825333	-0.242722	-0.242722	45.874500	-9.951611
840.926015	93.205333	127.186444	49.515333	49.515333	111.409500	105.341444
841.233739	16.262389	45.389056	46.602667	46.602667	45.389056	29.612111
841.541408	103.642389	56.311556	79.370167	79.370167	130.341833	102.428778
841.849020	15.534222	-17.233278	44.660889	44.660889	42.233667	36.165611
842.156576	67.962222	47.330833	63.107778	63.107778	64.321389	74.030278
842.464076	134.710833	43.690000	75.243889	75.243889	21.845000	74.030278
842.771519	90.049944	17.233278	41.505500	41.505500	19.660500	22.087722
843.078906	2.669944	-38.592833	16.019667	16.019667	-22.815889	-45.874500
843.386237	-6.796222	33.252944	47.816278	47.816278	8.980722	62.379611
843.693511	53.641611	2.669944	64.564111	64.564111	2.669944	9.951611
844.000729	55.583389	95.632556	33.738389	33.738389	19.175056	-2.669944
844.307890	7.281667	27.913056	21.845000	21.845000	49.758056	42.476389
844.614995	51.699833	49.272611	94.176222	94.176222	49.272611	33.495667
844.922043	-27.427611	-4.369000	25.971278	25.971278	-6.796222	-18.932333
845.229035	-4.854444	-9.708889	-29.126667	-29.126667	30.340278	10.922500
845.535970	22.815889	32.524778	60.437833	60.437833	34.952000	-24.514944
845.842849	25.000389	17.718722	3.155389	3.155389	37.136500	14.077889
846.149671	8.495278	23.058611	-19.417778	-19.417778	30.340278	18.204167
846.456437	30.097556	72.573944	50.728944	50.728944	45.874500	100.487000
846.763146	43.447278	-18.446889	34.952000	34.952000	27.670333	61.651444
847.069799	76.214778	39.806444	82.282833	82.282833	38.592833	34.952000
847.376395	61.166000	34.466556	-15.291500	-15.291500	79.370167	29.612111
847.682934	120.632944	72.088500	46.602667	46.602667	86.651833	83.011000
847.989417	22.330444	-4.369000	-22.573167	-22.573167	15.048778	-0.728167
848.295843	15.048778	95.147111	84.224611	84.224611	42.961833	42.961833
848.602213	58.738778	18.689611	42.961833	42.961833	38.107389	29.612111
848.908526	-23.058611	26.699444	20.631389	20.631389	40.049167	66.748611
849.214782	5.097167	28.155778	-15.534222	-15.534222	11.165222	48.787167
849.520981	32.524778	-12.378833	0.970889	0.970889	16.747833	39.806444
849.827124	44.175444	7.767111	57.525167	57.525167	101.215167	51.457111
850.133210	-14.806056	-79.127444	-76.700222	-76.700222	-87.622722	-43.932722
850.439239	47.816278	12.621556	56.311556	56.311556	0.485444	1.699056
850.745212	91.020833	33.981111	12.136111	12.136111	59.466944	43.690000
851.051128	41.990944	35.922889	62.622333	62.622333	62.622333	41.990944
851.356987	26.942167	2.669944	43.932722	43.932722	-8.252556	57.282444
851.662789	55.097944	58.738778	84.224611	84.224611	72.088500	56.311556
851.968534	33.252944	91.506278	75.729333	75.729333	95.147111	-6.796222
852.274223	20.874111	46.359944	13.592444	13.592444	23.301333	51.214389
852.579854	66.263167	56.554278	29.854833	29.854833	16.505111	54.127056
852.885429	20.145944	-27.184889	20.145944	20.145944	-41.748222	-19.903222
853.190947	-19.175056	14.806056	51.214389	51.214389	73.059389	29.369389
853.496408	58.738778	21.116833	5.339889	5.339889	35.680167	44.175444
853.801812	-18.446889	14.320611	11.893389	11.893389	45.874500	15.534222
854.107160	15.291500	21.359556	-8.980722	-8.980722	-29.612111	60.195111
854.412450	71.603056	36.408333	59.466944	59.466944	33.981111	35.194722
854.717683	45.631778	17.718722	92.962611	92.962611	62.622333	63.835944
855.022859	39.563722	41.990944	8.009833	8.009833	50.486222	31.068444
855.327979	-4.369000	41.748222	40.534611	40.534611	29.612111	22.330444
855.633041	17.718722	48.059000	60.195111	60.195111	58.981500	-7.767111
855.938046	45.631778	46.845389	96.603444	96.603444	22.573167	10.437056
856.242995	28.641222	95.389833	40.777333	40.777333	77.185667	62.622333
856.547886	-3.640833	18.204167	18.204167	18.204167	33.981111	46.117222
856.852720	-34.952000	-3.398111	-17.961444	-17.961444	-15.534222	1.456333
857.157497	36.651056	23.301333	19.660500	19.660500	13.592444	26.942167
857.462217	35.922889	34.709278	89.321778	89.321778	78.399278	105.098722
857.766880	49.758056	-1.213611	71.603056	71.603056	41.262778	-7.281667
858.071486	32.282056	28.641222	54.127056	54.127056	52.913444	61.408722
858.376035	6.310778	-25.243111	2.669944	2.669944	-26.456722	35.437444
858.680526	52.670722	-3.155389	-4.369000	-4.369000	52.670722	12.621556
858.984961	9.466167	19.175056	22.815889	22.815889	22.815889	14.320611
859.289338	35.194722	13.349722	9.708889	9.708889	-3.640833	47.330833
859.593658	91.506278	25.971278	53.884333	53.884333	64.806833	47.816278
859.897921	48.787167	41.505500	79.127444	79.127444	105.826889	126.458278
860.202126	103.642389	24.757667	81.797389	81.797389	69.661278	64.806833
860.506275	33.495667	-25.971278	-41.748222	-41.748222	-36.893778	-25.971278
860.810366	33.495667	66.263167	34.709278	34.709278	78.399278	80.826500
861.114399	73.059389	9.951611	59.709667	59.709667	37.864667	40.291889
861.418376	101.215167	104.856000	103.642389	103.642389	104.856000	112.137667
861.722295	51.942556	73.787556	66.505889	66.505889	47.088111	49.515333
862.026157	29.854833	49.272611	31.068444	31.068444	38.350111	-0.485444
862.329961	64.806833	44.175444	64.806833	64.806833	2.912667	17.476000
862.633709	29.126667	91.020833	4.854444	4.854444	1.213611	-48.544444
862.937398	19.660500	63.350500	-3.398111	-3.398111	124.031056	33.010222
863.241031	26.214000	11.650667	15.291500	15.291500	21.359556	28.641222
863.544606	82.525556	54.612500	76.457500	76.457500	32.767500	38.835556
863.848124	-16.990556	71.603056	25.485833	25.485833	21.845000	30.340278
864.151584	61.408722	60.195111	33.495667	33.495667	49.272611	17.718722
864.454987	17.961444	15.534222	53.156167	53.156167	-3.883556	39.806444
864.758332	-42.961833	-16.262389	9.223444	9.223444	-23.544056	-15.048778
865.061620	29.612111	2.912667	-10.437056	-10.437056	35.680167	70.874889
865.364850	34.952000	47.088111	45.874500	45.874500	53.156167	36.165611
865.668023	-28.398500	8.009833	-1.699056	-1.699056	22.573167	-6.553500
865.971138	75.486611	75.486611	53.641611	53.641611	77.913833	45.146333
866.274196	56.554278	0.728167	66.263167	66.263167	55.340667	45.631778
866.577196	-9.223444	-26.214000	-26.214000	-26.214000	-11.650667	-25.000389
866.880139	20.874111	58.496056	65.777722	65.777722	57.282444	-3.398111
867.183024	55.097944	24.757667	67.234056	67.234056	25.971278	0.485444
867.485852	28.641222	9.223444	20.145944	20.145944	50.486222	17.718722
867.788622	28.398500	53.884333	67.234056	67.234056	16.262389	47.816278
868.091334	15.534222	50.728944	58.010611	58.010611	13.107000	44.660889
868.393989	32.039333	12.621556	-20.145944	-20.145944	23.544056	32.039333
868.696586	64.321389	-2.427222	1.213611	1.213611	57.039722	41.262778
868.999125	40.534611	34.466556	18.689611	18.689611	13.835167	40.534611
869.301607	51.214389	26.942167	47.573556	47.573556	88.836333	18.446889
869.604031	37.136500	16.505111	52.913444	52.913444	50.486222	27.427611
869.906397	-9.708889	-7.281667	-10.922500	-10.922500	50.971667	21.845000
870.208706	8.009833	25.000389	-11.407944	-11.407944	-13.835167	-25.971278
870.510957	-24.757667	5.582611	4.369000	4.369000	-5.339889	-13.835167
870.813150	-11.165222	-65.777722	-6.310778	-6.310778	-42.719111	16.747833
871.115285	43.447278	7.038944	32.524778	32.524778	76.214778	98.059778
871.417363	49.272611	107.525944	52.913444	52.913444	83.253722	61.408722
871.719382	29.126667	46.117222	41.262778	41.262778	26.699444	30.340278
872.021344	65.535000	-1.213611	49.758056	49.758056	69.175833	86.166389
872.323248	34.709278	26.214000	31.068444	31.068444	37.136500	25.000389
872.625094	40.291889	1.456333	-24.029500	-24.029500	-22.815889	-0.970889
872.926883	49.758056	76.457500	50.971667	50.971667	16.990556	4.854444
873.228613	33.252944	86.651833	22.330444	22.330444	39.321000	97.574333
873.530286	22.330444	23.544056	127.914611	127.914611	67.234056	132.769056
873.831900	45.389056	51.457111	50.243500	50.243500	81.797389	47.816278
874.133457	12.621556	68.447667	50.243500	50.243500	-4.369000	49.029889
874.434956	33.738389	15.534222	22.815889	22.815889	33.738389	20.388667
874.736397	55.826111	52.185278	80.098333	80.098333	58.253333	31.553889
875.037780	27.184889	61.166000	13.835167	13.835167	52.670722	2.912667
875.339105	20.388667	21.602278	-6.310778	-6.310778	49.515333	-34.223833
875.640371	5.825333	-18.446889	-18.446889	-18.446889	71.360333	21.602278
875.941580	25.000389	-13.835167	20.145944	20.145944	10.437056	-0.485444
876.242731	21.116833	40.534611	-29.854833	-29.854833	17.476000	-18.932333
876.543824	42.476389	116.506667	31.553889	31.553889	24.272222	71.603056
876.844859	21.116833	34.466556	4.126278	4.126278	21.116833	17.476000
877.145835	-34.709278	25.971278	-5.582611	-5.582611	19.903222	-25.000389
877.446754	56.554278	31.068444	8.009833	8.009833	-21.116833	97.817056
877.747614	-61.651444	25.728556	18.446889	18.446889	-43.447278	-4.611722
878.048417	46.845389	95.389833	112.380389	112.380389	55.340667	136.652611
878.349161	42.476389	78.884722	47.330833	47.330833	19.417778	-9.708889
878.649847	55.826111	10.922500	26.699444	26.699444	-10.922500	-19.417778
878.950475	35.194722	19.417778	42.476389	42.476389	41.262778	38.835556
879.251045	79.612889	71.117611	46.845389	46.845389	48.059000	83.253722
879.551556	20.145944	22.573167	-42.961833	-42.961833	14.077889	-5.339889
879.852010	108.011389	80.098333	123.788333	123.788333	106.797778	84.952778
880.152405	6.310778	64.564111	47.573556	47.573556	33.010222	34.223833
880.452741	0.242722	24.514944	36.651056	36.651056	23.301333	17.233278
880.753020	10.194333	55.097944	42.961833	42.961833	11.407944	5.339889
881.053240	35.437444	34.223833	34.223833	34.223833	60.923278	73.059389
881.353402	80.826500	45.631778	105.098722	105.098722	-1.699056	83.253722
881.653506	64.321389	0.000000	63.107778	63.107778	30.340278	50.971667
881.953552	16.990556	-10.922500	4.854444	4.854444	-19.417778	23.058611
882.253539	38.107389	57.525167	-1.941778	-1.941778	-20.145944	35.680167
882.553467	27.670333	65.292278	27.670333	27.670333	72.573944	20.388667
882.853338	-35.437444	-1.456333	-30.583000	-30.583000	22.815889	-19.660500
883.153150	-2.184500	35.437444	-0.970889	-0.970889	34.223833	28.155778
883.452903	2.184500	47.088111	25.243111	25.243111	-6.310778	31.311167
883.752598	75.486611	56.068833	0.242722	0.242722	74.273000	53.641611
884.052235	28.398500	45.389056	11.407944	11.407944	59.952389	2.912667
884.351814	22.573167	17.718722	26.214000	26.214000	54.127056	43.204556
884.651333	41.748222	11.407944	-35.922889	-35.922889	19.903222	44.175444
884.950795	14.077889	31.068444	6.796222	6.796222	17.718722	17.718722
885.250198	17.233278	43.932722	111.894944	111.894944	-21.602278	-15.534222
885.549542	16.747833	24.029500	-37.864667	-37.864667	-12.378833	-22.087722
885.848828	17.961444	56.797000	49.515333	49.515333	7.038944	9.466167
886.148055	6.796222	80.826500	51.699833	51.699833	49.272611	89.321778
886.447224	83.253722	78.399278	29.854833	29.854833	62.622333	63.835944
886.746335	18.204167	7.281667	43.690000	43.690000	-2.427222	31.553889
887.045386	8.252556	-1.456333	27.670333	27.670333	34.952000	85.923667
887.344379	109.710444	95.147111	119.419333	119.419333	142.477944	115.778500
887.643314	28.883944	54.369778	8.252556	8.252556	47.088111	5.825333
887.942190	15.291500	32.282056	14.077889	14.077889	-12.621556	-21.116833
888.241007	10.679778	9.466167	-36.651056	-36.651056	-31.796611	48.301722
888.539766	-0.970889	42.719111	8.738000	8.738000	25.728556	-10.679778
888.838465	29.612111	-10.437056	36.893778	36.893778	-0.728167	4.126278
889.137107	77.913833	19.660500	1.456333	1.456333	73.059389	9.951611
889.435689	25.971278	58.738778	29.612111	29.612111	51.457111	27.184889
889.734213	87.865444	58.738778	118.205722	118.205722	84.224611	72.088500
890.032678	101.215167	75.729333	119.419333	119.419333	124.273778	121.846556
890.331085	-14.077889	-1.941778	-34.709278	-34.709278	42.961833	18.689611
