wavelength	0.010304	0.010228	0.010299	0.010062	0.010318	0.010370

178.106480	-43.204556	-43.204556	-15.291500	0.485444	0.485444	-17.718722
178.493382	-43.204556	-43.204556	-15.291500	0.485444	0.485444	-17.718722
178.880256	-43.204556	-43.204556	-15.291500	0.485444	0.485444	-17.718722
179.267103	-12.864278	-12.864278	-1.941778	-20.145944	-20.145944	6.553500
179.653922	-62.379611	-62.379611	-16.262389	-74.515722	-74.515722	-25.971278
180.040713	-12.378833	-12.378833	10.679778	-36.651056	-36.651056	32.524778
180.427476	37.621944	37.621944	29.126667	-6.068056	-6.068056	3.640833
180.814211	39.563722	39.563722	28.641222	55.340667	55.340667	40.777333
181.200918	29.369389	29.369389	12.378833	16.019667	16.019667	-4.611722
181.587598	65.049556	65.049556	96.603444	56.554278	56.554278	74.758444
181.974250	36.165611	36.165611	107.768667	38.592833	38.592833	32.524778
182.360873	51.699833	51.699833	49.272611	45.631778	45.631778	82.040111
182.747469	14.320611	14.320611	72.573944	59.224222	59.224222	68.933111
183.134037	18.204167	18.204167	43.690000	52.185278	52.185278	16.990556
183.520577	122.817444	122.817444	156.798556	111.894944	111.894944	134.953556
183.907089	4.854444	4.854444	26.699444	31.553889	31.553889	20.631389
184.293573	66.505889	66.505889	48.301722	34.952000	34.952000	51.942556
184.680029	14.806056	14.806056	43.932722	-2.184500	-2.184500	13.592444
185.066457	115.050333	115.050333	133.254500	153.885889	153.885889	140.536167
185.452857	90.049944	90.049944	124.031056	133.739944	133.739944	116.749389
185.839229	47.573556	47.573556	20.874111	81.554667	81.554667	52.428000
186.225573	0.000000	0.000000	53.398889	67.962222	67.962222	93.448056
186.611889	17.233278	17.233278	25.728556	13.592444	13.592444	6.310778
186.998176	0.000000	0.000000	91.020833	29.126667	29.126667	57.039722
187.384436	62.865056	62.865056	90.778111	45.874500	45.874500	-6.310778
187.770668	-7.281667	-7.281667	63.107778	33.981111	33.981111	78.884722
188.156871	76.214778	76.214778	141.749778	133.254500	133.254500	122.332000
188.543046	76.942944	76.942944	93.933500	34.466556	34.466556	108.496833
188.929193	17.233278	17.233278	29.369389	59.709667	59.709667	50.000778
189.315312	53.641611	53.641611	34.223833	53.641611	53.641611	-20.388667
189.701403	33.738389	33.738389	51.942556	67.719500	67.719500	85.923667
190.087466	58.981500	58.981500	61.408722	56.554278	56.554278	56.554278
190.473500	25.243111	25.243111	13.107000	41.020056	41.020056	66.505889
190.859506	132.769056	132.769056	120.632944	101.215167	101.215167	158.254889
191.245484	18.446889	18.446889	80.341056	31.796611	31.796611	82.768278
191.631434	34.709278	34.709278	33.495667	50.486222	50.486222	55.340667
192.017355	98.545222	98.545222	153.157722	107.040500	107.040500	69.418556
192.403248	77.428389	77.428389	78.642000	59.224222	59.224222	83.496444
192.789113	52.185278	52.185278	26.699444	50.971667	50.971667	49.758056
193.174949	24.757667	24.757667	39.321000	58.738778	58.738778	34.466556
193.560757	96.360722	96.360722	72.088500	72.088500	72.088500	108.496833
193.946537	73.544833	73.544833	145.147889	78.399278	78.399278	48.059000
194.332288	115.293056	115.293056	97.088889	67.962222	67.962222	95.875278
194.718011	21.602278	21.602278	87.137278	83.496444	83.496444	98.059778
195.103705	39.078278	39.078278	64.564111	105.826889	105.826889	81.554667
195.489371	3.398111	3.398111	11.893389	39.806444	39.806444	-0.242722
195.875009	-9.708889	-9.708889	81.311944	49.758056	49.758056	92.234444
196.260618	94.418944	94.418944	85.923667	82.282833	82.282833	106.555056
196.646199	54.612500	54.612500	3.640833	6.068056	6.068056	21.845000
197.031751	35.437444	35.437444	64.564111	28.155778	28.155778	24.514944
197.417275	-2.669944	-2.669944	34.952000	48.301722	48.301722	31.311167
197.802771	-1.699056	-1.699056	35.922889	-23.544056	-23.544056	-16.262389
198.188237	114.807611	114.807611	55.340667	75.972056	75.972056	66.263167
198.573676	35.437444	35.437444	7.524389	14.806056	14.806056	52.428000
198.959085	69.904000	69.904000	8.009833	58.981500	58.981500	10.437056
199.344466	14.320611	14.320611	9.466167	16.747833	16.747833	-39.078278
199.729819	53.156167	53.156167	31.311167	116.263944	116.263944	66.505889
200.115143	41.020056	41.020056	149.031444	136.895333	136.895333	110.195889
200.500438	76.214778	76.214778	77.428389	76.214778	76.214778	112.623111
200.885705	-37.621944	-37.621944	-6.068056	66.748611	66.748611	4.854444
201.270943	113.594000	113.594000	141.507056	116.021222	116.021222	123.302889
201.656152	25.971278	25.971278	15.048778	53.884333	53.884333	39.321000
202.041333	78.884722	78.884722	126.215556	98.302500	98.302500	80.098333
202.426485	92.962611	92.962611	56.554278	44.418167	44.418167	57.767889
202.811608	39.078278	39.078278	56.068833	18.446889	18.446889	71.845778
203.196703	19.175056	19.175056	16.747833	55.583389	55.583389	-13.592444
203.581769	9.708889	9.708889	69.175833	61.894167	61.894167	52.185278
203.966806	7.281667	7.281667	-8.495278	101.943333	101.943333	54.612500
204.351814	30.097556	30.097556	-58.496056	55.583389	55.583389	13.107000
204.736794	41.020056	41.020056	42.233667	34.952000	34.952000	16.747833
205.121745	42.476389	42.476389	53.398889	-23.058611	-23.058611	42.476389
205.506667	90.292667	90.292667	41.748222	84.224611	84.224611	67.234056
205.891560	-14.563333	-14.563333	40.049167	38.835556	38.835556	23.058611
206.276424	75.243889	75.243889	50.971667	27.913056	27.913056	53.398889
206.661260	51.942556	51.942556	64.078667	61.651444	61.651444	72.573944
207.046066	32.524778	32.524778	84.710056	41.020056	41.020056	51.942556
207.430844	111.894944	111.894944	103.399667	79.127444	79.127444	65.777722
207.815593	46.359944	46.359944	-9.466167	19.660500	19.660500	25.728556
208.200313	91.749000	91.749000	33.495667	23.786778	23.786778	4.369000
208.585003	19.903222	19.903222	36.893778	73.302111	73.302111	75.729333
208.969665	80.826500	80.826500	28.641222	63.835944	63.835944	43.204556
209.354299	61.651444	61.651444	79.855611	44.660889	44.660889	73.787556
209.738903	-1.213611	-1.213611	-7.281667	-44.903611	-44.903611	32.767500
210.123478	26.942167	26.942167	26.942167	35.437444	35.437444	50.000778
210.508024	54.612500	54.612500	24.272222	75.243889	75.243889	83.739167
210.892541	77.671111	77.671111	26.699444	26.699444	26.699444	20.631389
211.277029	60.437833	60.437833	87.137278	77.428389	77.428389	64.078667
211.661488	74.758444	74.758444	10.437056	86.894556	86.894556	75.972056
212.045918	61.651444	61.651444	34.952000	82.282833	82.282833	25.243111
212.430318	31.068444	31.068444	15.291500	-15.048778	-15.048778	-27.184889
212.814690	58.496056	58.496056	13.592444	48.787167	48.787167	122.817444
213.199033	-26.699444	-26.699444	-19.417778	26.699444	26.699444	59.466944
213.583346	54.612500	54.612500	-20.631389	18.204167	18.204167	41.262778
213.967631	20.145944	20.145944	56.554278	34.709278	34.709278	78.399278
214.351886	27.913056	27.913056	50.971667	60.680556	60.680556	35.194722
214.736112	-3.883556	-3.883556	68.933111	58.010611	58.010611	34.952000
215.120309	20.631389	20.631389	37.621944	43.690000	43.690000	23.058611
215.504476	49.029889	49.029889	1.699056	55.097944	55.097944	-23.786778
215.888615	85.438222	85.438222	62.379611	78.156556	78.156556	17.476000
216.272724	-29.854833	-29.854833	45.389056	78.156556	78.156556	56.311556
216.656804	93.205333	93.205333	45.874500	94.418944	94.418944	75.001167
217.040854	14.320611	14.320611	37.379222	36.165611	36.165611	31.311167
217.424876	53.641611	53.641611	79.127444	86.409111	86.409111	54.855222
217.808868	93.933500	93.933500	120.632944	112.137667	112.137667	90.292667
218.192830	57.767889	57.767889	-1.699056	6.796222	6.796222	-1.699056
218.576764	-4.611722	-4.611722	-21.602278	2.669944	2.669944	35.437444
218.960668	70.389444	70.389444	31.553889	27.913056	27.913056	52.185278
219.344543	43.447278	43.447278	83.496444	73.787556	73.787556	75.001167
219.728388	18.689611	18.689611	2.912667	30.825722	30.825722	-11.650667
220.112204	96.846167	96.846167	142.963389	113.836722	113.836722	73.787556
220.495991	60.923278	60.923278	92.477167	76.700222	76.700222	88.836333
220.879748	97.331611	97.331611	92.477167	91.263556	91.263556	66.991333
221.263476	67.476778	67.476778	78.399278	38.350111	38.350111	10.437056
221.647174	75.972056	75.972056	40.777333	51.699833	51.699833	68.690389
222.030843	34.223833	34.223833	34.223833	24.514944	24.514944	74.273000
222.414482	55.826111	55.826111	75.243889	59.466944	59.466944	29.126667
222.798092	17.718722	17.718722	49.272611	79.612889	79.612889	61.408722
223.181672	-0.242722	-0.242722	-34.223833	-28.155778	-28.155778	15.534222
223.565223	36.165611	36.165611	53.156167	9.466167	9.466167	21.602278
223.948744	52.913444	52.913444	90.535389	49.272611	49.272611	3.155389
224.332236	79.370167	79.370167	100.001556	50.243500	50.243500	75.729333
224.715698	143.448833	143.448833	127.671889	97.331611	97.331611	94.904389
225.099131	51.699833	51.699833	54.127056	45.631778	45.631778	113.594000
225.482534	24.514944	24.514944	35.437444	40.291889	40.291889	37.864667
225.865907	-19.903222	-19.903222	15.291500	17.718722	17.718722	56.554278
226.249251	20.874111	20.874111	42.719111	-0.970889	-0.970889	68.204944
226.632565	107.768667	107.768667	81.069222	96.846167	96.846167	50.728944
227.015850	42.719111	42.719111	93.690778	39.078278	39.078278	60.923278
227.399104	-2.427222	-2.427222	-7.281667	12.136111	12.136111	-6.068056
227.782329	22.087722	22.087722	12.378833	-2.184500	-2.184500	46.359944
228.165525	51.699833	51.699833	75.972056	26.214000	26.214000	20.145944
228.548691	82.525556	82.525556	55.826111	84.952778	84.952778	25.485833
228.931827	40.777333	40.777333	-22.330444	-0.485444	-0.485444	25.000389
229.314933	96.360722	96.360722	116.992111	84.224611	84.224611	92.719889
229.698009	35.194722	35.194722	-30.340278	30.340278	30.340278	23.058611
230.081056	82.525556	82.525556	0.000000	99.516111	99.516111	82.525556
230.464073	126.458278	126.458278	64.564111	77.913833	77.913833	111.894944
230.847060	42.476389	42.476389	36.408333	41.262778	41.262778	93.448056
231.230017	87.137278	87.137278	65.292278	68.933111	68.933111	85.923667
231.612944	8.980722	8.980722	-6.796222	24.757667	24.757667	-11.650667
231.995842	18.932333	18.932333	45.631778	46.845389	46.845389	50.486222
232.378709	-48.059000	-48.059000	49.029889	55.097944	55.097944	8.980722
232.761547	91.263556	91.263556	93.690778	93.690778	93.690778	82.768278
233.144355	25.728556	25.728556	6.310778	58.496056	58.496056	8.738000
233.527133	35.194722	35.194722	75.243889	128.642778	128.642778	64.321389
233.909881	20.388667	20.388667	33.738389	-17.233278	-17.233278	-13.592444
234.292599	46.117222	46.117222	54.612500	19.417778	19.417778	44.903611
234.675287	52.670722	52.670722	66.020444	41.748222	41.748222	46.602667
235.057945	20.631389	20.631389	40.049167	46.117222	46.117222	84.952778
235.440574	28.883944	28.883944	38.592833	70.146722	70.146722	24.029500
235.823172	30.583000	30.583000	63.350500	31.796611	31.796611	42.719111
236.205740	69.418556	69.418556	43.932722	42.719111	42.719111	76.700222
236.588278	66.020444	66.020444	85.438222	24.757667	24.757667	18.689611
236.970786	109.953167	109.953167	56.554278	61.408722	61.408722	27.427611
237.353264	23.786778	23.786778	106.312333	101.457889	101.457889	44.418167
237.735712	25.485833	25.485833	77.671111	40.049167	40.049167	95.875278
238.118130	45.631778	45.631778	33.495667	34.709278	34.709278	-39.321000
238.500517	21.845000	21.845000	-8.495278	27.913056	27.913056	30.340278
238.882875	59.952389	59.952389	84.224611	13.835167	13.835167	79.370167
239.265202	34.709278	34.709278	52.913444	54.127056	54.127056	4.369000
239.647499	43.447278	43.447278	68.933111	70.146722	70.146722	44.660889
240.029767	0.000000	0.000000	33.981111	-15.776944	-15.776944	-2.427222
240.412003	39.563722	39.563722	100.244278	-10.194333	-10.194333	48.059000
240.794210	73.544833	73.544833	26.214000	78.399278	78.399278	29.854833
241.176387	17.718722	17.718722	38.350111	86.894556	86.894556	25.000389
241.558533	58.253333	58.253333	53.398889	44.903611	44.903611	106.797778
241.940649	60.680556	60.680556	41.262778	50.971667	50.971667	75.243889
242.322734	67.719500	67.719500	98.059778	130.827278	130.827278	54.369778
242.704790	33.738389	33.738389	27.670333	26.456722	26.456722	36.165611
243.086815	27.670333	27.670333	55.583389	58.010611	58.010611	44.660889
243.468810	23.544056	23.544056	30.825722	15.048778	15.048778	29.612111
243.850774	1.941778	1.941778	60.195111	101.457889	101.457889	84.467333
244.232709	92.962611	92.962611	122.089278	136.652611	136.652611	107.525944
244.614612	62.865056	62.865056	3.398111	16.747833	16.747833	45.874500
244.996486	-14.806056	-14.806056	24.029500	36.165611	36.165611	3.398111
245.378329	49.272611	49.272611	12.864278	21.359556	21.359556	18.932333
245.760142	-31.553889	-31.553889	24.272222	13.349722	13.349722	54.612500
246.141924	57.767889	57.767889	60.195111	35.922889	35.922889	29.854833
246.523676	-9.223444	-9.223444	61.166000	32.039333	32.039333	-32.282056
246.905397	1.941778	1.941778	35.922889	37.136500	37.136500	57.767889
247.287088	79.855611	79.855611	72.573944	53.156167	53.156167	94.418944
247.668748	7.767111	7.767111	8.980722	25.971278	25.971278	33.252944
248.050378	4.854444	4.854444	40.049167	32.767500	32.767500	36.408333
248.431978	78.156556	78.156556	15.048778	36.893778	36.893778	-0.728167
248.813547	27.670333	27.670333	24.029500	47.088111	47.088111	85.923667
249.195085	46.845389	46.845389	50.486222	49.272611	49.272611	65.049556
249.576593	6.310778	6.310778	-36.165611	25.728556	25.728556	54.855222
249.958070	56.068833	56.068833	-4.611722	14.806056	14.806056	51.214389
250.339517	81.069222	81.069222	41.020056	36.165611	36.165611	53.156167
250.720933	67.719500	67.719500	32.524778	36.165611	36.165611	89.564500
251.102318	-25.485833	-25.485833	50.971667	-7.281667	-7.281667	-1.213611
251.483673	42.961833	42.961833	19.903222	58.738778	58.738778	51.457111
251.864997	15.048778	15.048778	81.797389	40.534611	40.534611	-15.291500
252.246291	29.126667	29.126667	74.030278	26.699444	26.699444	65.535000
252.627554	53.884333	53.884333	75.729333	69.661278	69.661278	18.689611
253.008786	44.903611	44.903611	32.767500	57.039722	57.039722	32.767500
253.389987	43.204556	43.204556	128.157333	91.749000	91.749000	72.331222
253.771158	12.864278	12.864278	25.000389	15.291500	15.291500	55.340667
254.152298	87.622722	87.622722	53.641611	42.719111	42.719111	69.418556
254.533408	44.903611	44.903611	23.058611	37.621944	37.621944	48.544444
254.914486	54.127056	54.127056	32.282056	29.854833	29.854833	41.990944
255.295534	33.495667	33.495667	39.563722	5.582611	5.582611	37.136500
255.676551	34.952000	34.952000	10.679778	-5.097167	-5.097167	16.747833
256.057537	89.079056	89.079056	38.107389	67.234056	67.234056	49.029889
256.438492	42.961833	42.961833	46.602667	36.893778	36.893778	79.370167
256.819417	74.030278	74.030278	16.990556	63.107778	63.107778	48.544444
257.200310	46.117222	46.117222	32.767500	120.147500	120.147500	50.971667
257.581173	-46.117222	-46.117222	-18.204167	18.204167	18.204167	26.699444
257.962005	28.398500	28.398500	4.126278	-33.495667	-33.495667	63.593222
258.342806	111.166778	111.166778	73.544833	56.554278	56.554278	80.826500
258.723576	52.185278	52.185278	42.476389	61.894167	61.894167	3.640833
259.104315	51.699833	51.699833	54.127056	122.089278	122.089278	134.225389
259.485023	45.146333	45.146333	48.787167	36.651056	36.651056	11.165222
259.865700	26.456722	26.456722	25.243111	41.020056	41.020056	78.642000
260.246347	25.243111	25.243111	51.942556	28.883944	28.883944	32.524778
260.626962	6.310778	6.310778	24.514944	59.709667	59.709667	26.942167
261.007546	31.796611	31.796611	24.514944	60.923278	60.923278	65.777722
261.388099	-29.126667	-29.126667	38.835556	-13.349722	-13.349722	-26.699444
261.768621	116.506667	116.506667	44.903611	78.884722	78.884722	94.661667
262.149112	54.612500	54.612500	72.816667	75.243889	75.243889	84.952778
262.529573	50.971667	50.971667	74.030278	63.107778	63.107778	32.767500
262.910002	55.340667	55.340667	41.990944	86.894556	86.894556	10.437056
263.290399	43.204556	43.204556	45.631778	-8.980722	-8.980722	95.389833
263.670766	91.263556	91.263556	74.273000	22.087722	22.087722	63.350500
264.051102	13.835167	13.835167	-5.582611	30.825722	30.825722	44.175444
264.431406	25.243111	25.243111	10.679778	7.038944	7.038944	42.233667
264.811680	42.961833	42.961833	-5.582611	38.107389	38.107389	23.544056
265.191922	27.670333	27.670333	27.670333	47.088111	47.088111	58.010611
265.572133	29.369389	29.369389	18.446889	18.446889	18.446889	12.378833
265.952313	48.301722	48.301722	110.195889	58.010611	58.010611	102.914222
266.332461	62.379611	62.379611	4.126278	87.865444	87.865444	86.651833
266.712578	20.145944	20.145944	25.000389	-10.194333	-10.194333	-15.048778
267.092665	40.049167	40.049167	38.835556	9.708889	9.708889	35.194722
267.472719	68.447667	68.447667	-10.437056	32.039333	32.039333	74.515722
267.852743	55.826111	55.826111	115.293056	70.389444	70.389444	151.701389
268.232735	16.262389	16.262389	49.029889	41.748222	41.748222	67.234056
268.612696	21.116833	21.116833	-18.932333	11.407944	11.407944	-11.650667
268.992626	52.913444	52.913444	82.040111	29.854833	29.854833	61.408722
269.372524	4.369000	4.369000	8.009833	8.009833	8.009833	29.854833
269.752391	76.214778	76.214778	67.719500	101.700611	101.700611	90.778111
270.132226	11.650667	11.650667	39.563722	22.573167	22.573167	43.204556
270.512030	-15.291500	-15.291500	51.457111	-20.145944	-20.145944	-3.155389
270.891803	-10.194333	-10.194333	65.049556	37.136500	37.136500	60.195111
271.271545	79.855611	79.855611	33.738389	59.224222	59.224222	72.573944
271.651255	-10.437056	-10.437056	44.175444	10.194333	10.194333	5.339889
272.030933	63.350500	63.350500	39.078278	71.845778	71.845778	58.496056
272.410580	5.825333	5.825333	5.825333	-13.592444	-13.592444	36.165611
272.790196	54.612500	54.612500	43.690000	1.213611	1.213611	23.058611
273.169780	50.000778	50.000778	36.651056	18.446889	18.446889	29.369389
273.549332	74.030278	74.030278	64.321389	21.845000	21.845000	81.311944
273.928853	72.088500	72.088500	129.128222	92.719889	92.719889	62.379611
274.308343	89.079056	89.079056	55.097944	83.011000	83.011000	33.252944
274.687800	18.689611	18.689611	6.553500	12.621556	12.621556	-18.932333
275.067227	99.030667	99.030667	68.690389	91.749000	91.749000	58.981500
275.446622	55.097944	55.097944	29.612111	32.039333	32.039333	73.302111
275.825985	59.952389	59.952389	124.273778	113.351278	113.351278	115.778500
276.205316	33.495667	33.495667	84.467333	21.359556	21.359556	58.981500
276.584616	78.884722	78.884722	50.971667	57.039722	57.039722	44.903611
276.963885	76.457500	76.457500	43.690000	15.776944	15.776944	120.147500
277.343121	53.884333	53.884333	38.107389	34.466556	34.466556	62.379611
277.722326	55.826111	55.826111	81.311944	127.429167	127.429167	63.107778
278.101499	66.020444	66.020444	10.194333	47.816278	47.816278	100.001556
278.480641	47.088111	47.088111	17.961444	9.466167	9.466167	70.146722
278.859751	29.612111	29.612111	2.912667	-26.214000	-26.214000	-25.000389
279.238829	-3.640833	-3.640833	31.553889	-35.194722	-35.194722	30.340278
279.617875	-22.815889	-22.815889	17.233278	-36.165611	-36.165611	71.845778
279.996890	52.428000	52.428000	40.291889	18.446889	18.446889	73.059389
280.375873	20.388667	20.388667	61.651444	26.456722	26.456722	62.865056
280.754824	48.787167	48.787167	50.000778	-2.184500	-2.184500	60.923278
281.133743	1.699056	1.699056	-0.728167	16.262389	16.262389	52.670722
281.512631	33.981111	33.981111	66.748611	-6.068056	-6.068056	71.603056
281.891486	15.048778	15.048778	55.097944	7.767111	7.767111	-1.941778
282.270310	55.826111	55.826111	47.330833	46.117222	46.117222	33.981111
282.649102	25.971278	25.971278	24.757667	45.389056	45.389056	17.476000
283.027862	-26.699444	-26.699444	6.068056	-6.068056	-6.068056	29.126667
283.406590	42.719111	42.719111	105.826889	77.913833	77.913833	28.155778
283.785286	104.613278	104.613278	83.981889	70.632167	70.632167	85.195500
284.163950	76.700222	76.700222	97.331611	107.040500	107.040500	105.826889
284.542582	70.389444	70.389444	64.321389	24.272222	24.272222	63.107778
284.921183	42.476389	42.476389	92.234444	35.194722	35.194722	44.903611
285.299751	22.815889	22.815889	21.602278	13.107000	13.107000	73.787556
285.678287	57.767889	57.767889	41.990944	80.826500	80.826500	50.486222
286.056792	68.690389	68.690389	60.195111	14.077889	14.077889	21.359556
286.435264	6.310778	6.310778	20.874111	34.223833	34.223833	29.369389
286.813704	-30.825722	-30.825722	16.505111	6.796222	6.796222	-34.466556
287.192112	89.321778	89.321778	50.486222	109.953167	109.953167	72.331222
287.570489	37.136500	37.136500	86.894556	8.009833	8.009833	-21.116833
287.948833	95.147111	95.147111	136.409889	97.574333	97.574333	66.020444
288.327145	46.602667	46.602667	75.729333	-17.718722	-17.718722	-6.796222
288.705425	44.903611	44.903611	42.476389	33.981111	33.981111	29.126667
289.083672	35.922889	35.922889	66.263167	84.467333	84.467333	43.204556
289.461888	74.515722	74.515722	30.825722	38.107389	38.107389	74.515722
289.840071	69.661278	69.661278	7.767111	69.661278	69.661278	44.175444
290.218223	45.146333	45.146333	31.796611	33.010222	33.010222	28.155778
290.596342	13.349722	13.349722	38.835556	4.854444	4.854444	-23.058611
290.974429	35.437444	35.437444	-34.952000	6.310778	6.310778	-25.243111
291.352483	53.641611	53.641611	63.350500	63.350500	63.350500	45.146333
291.730506	34.709278	34.709278	18.932333	74.758444	74.758444	84.467333
292.108496	-38.835556	-38.835556	-9.708889	29.126667	29.126667	42.476389
292.486454	50.728944	50.728944	34.952000	2.184500	2.184500	17.961444
292.864379	7.281667	7.281667	57.039722	21.845000	21.845000	-12.136111
293.242273	-22.330444	-22.330444	9.223444	-2.912667	-2.912667	5.582611
293.620134	116.749389	116.749389	63.350500	141.021611	141.021611	77.913833
293.997963	102.914222	102.914222	51.942556	68.933111	68.933111	83.496444
294.375759	-8.980722	-8.980722	3.155389	-13.835167	-13.835167	-10.194333
294.753523	47.330833	47.330833	43.690000	50.971667	50.971667	40.049167
295.131255	40.534611	40.534611	28.398500	17.476000	17.476000	24.757667
295.508954	66.505889	66.505889	77.428389	108.982278	108.982278	76.214778
295.886621	-19.903222	-19.903222	51.699833	6.796222	6.796222	52.913444
296.264255	164.565667	164.565667	113.594000	162.138444	162.138444	232.527889
296.641857	37.864667	37.864667	16.019667	13.592444	13.592444	20.874111
297.019427	69.418556	69.418556	71.845778	62.136889	62.136889	36.651056
297.396964	26.456722	26.456722	10.679778	16.747833	16.747833	48.301722
297.774469	26.456722	26.456722	54.369778	30.097556	30.097556	72.573944
298.151941	100.972444	100.972444	54.855222	60.923278	60.923278	104.613278
298.529380	82.525556	82.525556	9.708889	19.417778	19.417778	74.030278
298.906788	-9.223444	-9.223444	5.339889	-32.282056	-32.282056	8.980722
299.284162	130.584556	130.584556	196.119556	131.798167	131.798167	197.333167
299.661504	35.194722	35.194722	3.640833	50.971667	50.971667	38.835556
300.038814	39.563722	39.563722	62.622333	22.573167	22.573167	-30.825722
300.416090	7.524389	7.524389	96.118000	76.700222	76.700222	28.155778
300.793335	104.613278	104.613278	134.953556	103.399667	103.399667	117.963000
301.170546	0.728167	0.728167	63.835944	-33.252944	-33.252944	3.155389
301.547726	22.330444	22.330444	45.389056	-17.718722	-17.718722	24.757667
301.924872	95.389833	95.389833	17.718722	62.622333	62.622333	44.418167
302.301986	71.360333	71.360333	60.437833	96.846167	96.846167	82.282833
302.679067	75.001167	75.001167	27.670333	107.768667	107.768667	82.282833
303.056115	23.058611	23.058611	43.690000	26.699444	26.699444	15.776944
303.433131	77.671111	77.671111	-12.136111	25.485833	25.485833	-7.281667
303.810114	64.564111	64.564111	85.195500	70.632167	70.632167	26.942167
304.187064	-40.534611	-40.534611	5.582611	3.155389	3.155389	-7.767111
304.563982	125.244667	125.244667	22.087722	65.777722	65.777722	71.845778
304.940866	35.680167	35.680167	28.398500	17.476000	17.476000	87.865444
305.317718	25.000389	25.000389	-27.184889	-1.699056	-1.699056	31.068444
305.694537	45.874500	45.874500	4.611722	-24.514944	-24.514944	-7.524389
306.071324	51.457111	51.457111	25.971278	75.729333	75.729333	76.942944
306.448077	45.631778	45.631778	52.913444	57.767889	57.767889	45.631778
306.824798	70.874889	70.874889	34.466556	52.670722	52.670722	56.311556
307.201486	47.088111	47.088111	38.592833	17.961444	17.961444	7.038944
307.578141	-4.854444	-4.854444	9.708889	3.640833	3.640833	30.340278
307.954763	66.020444	66.020444	21.116833	6.553500	6.553500	32.039333
308.331352	71.117611	71.117611	44.418167	83.253722	83.253722	48.059000
308.707908	43.690000	43.690000	38.835556	10.922500	10.922500	41.262778
309.084432	34.952000	34.952000	-14.806056	33.738389	33.738389	8.252556
309.460922	21.359556	21.359556	69.904000	66.263167	66.263167	40.777333
309.837379	1.213611	1.213611	14.563333	33.981111	33.981111	50.971667
310.213804	58.253333	58.253333	60.680556	91.020833	91.020833	35.194722
310.590195	24.029500	24.029500	62.865056	58.010611	58.010611	14.320611
310.966554	4.611722	4.611722	14.320611	28.883944	28.883944	59.224222
311.342879	39.806444	39.806444	30.097556	7.038944	7.038944	-23.301333
311.719172	4.854444	4.854444	30.340278	26.699444	26.699444	10.922500
312.095431	45.631778	45.631778	5.582611	32.282056	32.282056	20.145944
312.471657	14.806056	14.806056	11.165222	47.573556	47.573556	57.282444
312.847851	60.680556	60.680556	201.459444	131.070000	131.070000	177.187222
313.224011	51.942556	51.942556	45.874500	7.038944	7.038944	60.437833
313.600138	41.748222	41.748222	13.835167	-22.573167	-22.573167	11.407944
313.976232	16.505111	16.505111	60.195111	45.631778	45.631778	22.573167
314.352292	76.457500	76.457500	46.117222	48.544444	48.544444	49.758056
314.728320	79.370167	79.370167	38.107389	44.175444	44.175444	76.942944
315.104314	40.049167	40.049167	44.903611	65.535000	65.535000	87.380000
315.480275	27.670333	27.670333	15.534222	44.660889	44.660889	11.893389
315.856203	67.962222	67.962222	91.020833	135.924444	135.924444	103.156944
316.232098	-2.669944	-2.669944	-7.524389	26.456722	26.456722	9.466167
316.607960	46.602667	46.602667	47.816278	64.806833	64.806833	35.680167
316.983788	43.447278	43.447278	27.670333	58.010611	58.010611	-5.097167
317.359583	38.350111	38.350111	27.427611	37.136500	37.136500	57.767889
317.735345	93.690778	93.690778	8.738000	13.592444	13.592444	50.000778
318.111073	-17.233278	-17.233278	11.893389	-36.651056	-36.651056	72.573944
318.486769	-1.699056	-1.699056	17.718722	-25.971278	-25.971278	-33.252944
318.862430	22.815889	22.815889	13.107000	68.933111	68.933111	59.224222
319.238059	56.797000	56.797000	-0.242722	48.301722	48.301722	53.156167
319.613654	17.718722	17.718722	20.145944	-7.767111	-7.767111	32.282056
319.989216	36.165611	36.165611	55.583389	33.738389	33.738389	22.815889
320.364744	45.146333	45.146333	12.378833	5.097167	5.097167	-9.466167
320.740239	61.408722	61.408722	68.690389	67.476778	67.476778	33.495667
321.115701	0.970889	0.970889	-5.097167	24.029500	24.029500	4.611722
321.491129	-16.990556	-16.990556	-20.631389	29.126667	29.126667	38.835556
321.866524	56.554278	56.554278	46.845389	32.282056	32.282056	44.418167
322.241885	-9.466167	-9.466167	28.155778	34.223833	34.223833	48.787167
322.617213	14.320611	14.320611	53.156167	51.942556	51.942556	68.933111
322.992507	103.399667	103.399667	126.458278	73.059389	73.059389	117.963000
323.367768	108.011389	108.011389	91.020833	88.593611	88.593611	82.525556
323.742995	12.136111	12.136111	-1.213611	57.039722	57.039722	72.816667
324.118189	26.699444	26.699444	40.049167	9.708889	9.708889	21.845000
324.493349	-4.369000	-4.369000	75.729333	38.107389	38.107389	35.680167
324.868475	103.156944	103.156944	55.826111	37.621944	37.621944	74.030278
325.243568	36.408333	36.408333	67.962222	32.767500	32.767500	86.166389
325.618628	18.689611	18.689611	-8.009833	-33.495667	-33.495667	-17.718722
325.993654	98.302500	98.302500	57.039722	93.448056	93.448056	128.642778
326.368646	25.485833	25.485833	48.544444	-0.000000	-0.000000	21.845000
326.743604	8.252556	8.252556	37.379222	25.243111	25.243111	-19.660500
327.118529	36.893778	36.893778	7.767111	35.680167	35.680167	-3.155389
327.493421	63.593222	63.593222	35.680167	10.194333	10.194333	19.903222
327.868278	22.573167	22.573167	44.418167	14.077889	14.077889	-12.621556
328.243102	16.990556	16.990556	44.903611	15.776944	15.776944	36.408333
328.617892	-12.136111	-12.136111	-21.845000	42.476389	42.476389	14.563333
328.992648	61.166000	61.166000	66.020444	64.806833	64.806833	52.670722
329.367371	40.777333	40.777333	65.049556	86.894556	86.894556	83.253722
329.742060	52.670722	52.670722	53.884333	86.651833	86.651833	104.856000
330.116715	74.758444	74.758444	35.922889	89.321778	89.321778	103.885111
330.491336	83.253722	83.253722	99.030667	109.953167	109.953167	80.826500
330.865924	-7.767111	-7.767111	54.127056	39.563722	39.563722	60.195111
331.240477	28.641222	28.641222	99.030667	65.049556	65.049556	89.321778
331.614997	41.748222	41.748222	55.097944	62.379611	62.379611	74.515722
331.989483	78.884722	78.884722	35.194722	24.272222	24.272222	74.030278
332.363935	53.156167	53.156167	31.311167	20.388667	20.388667	-30.583000
332.738354	-3.640833	-3.640833	20.631389	36.408333	36.408333	109.225000
333.112738	42.719111	42.719111	51.214389	158.012167	158.012167	29.369389
333.487088	44.175444	44.175444	12.621556	52.670722	52.670722	-6.796222
333.861405	39.321000	39.321000	39.321000	67.234056	67.234056	42.961833
334.235687	80.583778	80.583778	24.757667	66.020444	66.020444	115.778500
334.609936	37.621944	37.621944	65.535000	55.826111	55.826111	44.903611
334.984150	53.641611	53.641611	63.350500	29.369389	29.369389	68.204944
335.358331	33.738389	33.738389	32.524778	55.583389	55.583389	11.893389
335.732478	2.184500	2.184500	39.806444	7.038944	7.038944	-24.514944
336.106590	73.787556	73.787556	79.855611	60.437833	60.437833	16.747833
336.480669	113.108556	113.108556	60.923278	41.505500	41.505500	53.641611
336.854713	92.477167	92.477167	-3.398111	65.777722	65.777722	-21.602278
337.228724	47.330833	47.330833	29.126667	97.088889	97.088889	25.485833
337.602700	89.321778	89.321778	106.312333	99.030667	99.030667	137.866222
337.976642	121.846556	121.846556	33.252944	46.602667	46.602667	104.856000
338.350550	45.874500	45.874500	42.233667	17.961444	17.961444	34.952000
338.724424	7.281667	7.281667	13.349722	47.330833	47.330833	-0.000000
339.098264	-8.252556	-8.252556	6.310778	54.855222	54.855222	13.592444
339.472070	77.428389	77.428389	75.001167	61.651444	61.651444	76.214778
339.845842	51.942556	51.942556	48.301722	65.292278	65.292278	26.456722
340.219579	42.719111	42.719111	9.951611	31.796611	31.796611	-4.611722
340.593282	2.427222	2.427222	-7.281667	15.776944	15.776944	-38.835556
340.966951	47.573556	47.573556	19.660500	45.146333	45.146333	65.777722
341.340586	17.233278	17.233278	-19.175056	-28.883944	-28.883944	47.573556
341.714186	30.340278	30.340278	-9.708889	-47.330833	-47.330833	-33.981111
342.087752	80.341056	80.341056	50.000778	58.496056	58.496056	68.204944
342.461284	47.816278	47.816278	41.748222	25.971278	25.971278	42.961833
342.834782	9.708889	9.708889	52.185278	-21.845000	-21.845000	6.068056
343.208245	54.612500	54.612500	38.835556	33.981111	33.981111	61.894167
343.581674	11.165222	11.165222	-42.233667	39.078278	39.078278	-90.778111
343.955069	70.632167	70.632167	39.078278	47.573556	47.573556	16.019667
344.328429	1.941778	1.941778	62.622333	27.427611	27.427611	23.786778
344.701755	33.010222	33.010222	14.806056	-14.320611	-14.320611	37.864667
345.075047	3.883556	3.883556	1.456333	-55.583389	-55.583389	34.223833
345.448304	48.301722	48.301722	20.388667	56.797000	56.797000	45.874500
345.821526	-14.077889	-14.077889	-20.145944	7.767111	7.767111	-16.505111
346.194715	48.787167	48.787167	22.087722	43.932722	43.932722	26.942167
346.567869	35.680167	35.680167	17.476000	-6.796222	-6.796222	51.457111
346.940988	15.776944	15.776944	6.068056	-7.281667	-7.281667	33.981111
347.314073	-39.806444	-39.806444	59.709667	-14.320611	-14.320611	3.883556
347.687123	80.583778	80.583778	93.933500	124.273778	124.273778	90.292667
348.060139	11.893389	11.893389	-16.019667	-13.592444	-13.592444	41.020056
348.433121	-17.476000	-17.476000	40.777333	16.505111	16.505111	38.350111
348.806067	47.573556	47.573556	36.651056	37.864667	37.864667	41.505500
349.178980	3.155389	3.155389	-18.689611	33.495667	33.495667	0.728167
349.551858	79.370167	79.370167	146.118778	121.846556	121.846556	133.982667
349.924701	42.961833	42.961833	64.806833	85.438222	85.438222	61.166000
350.297509	60.680556	60.680556	14.563333	65.535000	65.535000	72.816667
350.670283	-19.417778	-19.417778	0.000000	55.826111	55.826111	35.194722
351.043023	34.466556	34.466556	45.389056	119.419333	119.419333	67.234056
351.415727	63.593222	63.593222	56.311556	16.262389	16.262389	-34.709278
351.788397	63.835944	63.835944	148.788722	116.021222	116.021222	114.807611
352.161033	75.729333	75.729333	27.184889	30.825722	30.825722	49.029889
352.533633	112.137667	112.137667	97.574333	107.283222	107.283222	49.029889
352.906199	-4.126278	-4.126278	38.350111	71.117611	71.117611	23.786778
353.278731	21.116833	21.116833	8.980722	28.398500	28.398500	13.835167
353.651227	-60.923278	-60.923278	54.369778	16.747833	16.747833	58.010611
354.023689	46.845389	46.845389	23.786778	66.263167	66.263167	108.739556
354.396116	36.408333	36.408333	30.340278	16.990556	16.990556	25.485833
354.768508	-20.631389	-20.631389	31.553889	35.194722	35.194722	8.495278
355.140866	8.980722	8.980722	24.757667	35.680167	35.680167	18.689611
355.513188	2.912667	2.912667	-14.077889	7.767111	7.767111	-31.068444
355.885476	39.321000	39.321000	-3.155389	25.971278	25.971278	47.816278
356.257729	76.700222	76.700222	83.981889	82.768278	82.768278	47.573556
356.629947	12.864278	12.864278	23.786778	66.263167	66.263167	37.136500
357.002130	27.427611	27.427611	46.845389	14.077889	14.077889	75.972056
357.374279	40.291889	40.291889	47.573556	60.923278	60.923278	37.864667
357.746392	39.078278	39.078278	71.845778	113.108556	113.108556	88.836333
358.118471	0.242722	0.242722	25.728556	68.204944	68.204944	28.155778
358.490514	39.563722	39.563722	67.476778	78.399278	78.399278	41.990944
358.862523	85.680944	85.680944	80.826500	83.253722	83.253722	112.380389
359.234497	124.273778	124.273778	74.515722	69.661278	69.661278	75.729333
359.606436	33.981111	33.981111	58.253333	18.204167	18.204167	78.884722
359.978339	25.000389	25.000389	50.486222	35.922889	35.922889	77.185667
360.350208	73.302111	73.302111	74.515722	40.534611	40.534611	86.651833
360.722042	21.602278	21.602278	11.893389	5.825333	5.825333	9.466167
361.093841	62.379611	62.379611	35.680167	74.515722	74.515722	42.961833
361.465604	81.069222	81.069222	108.982278	20.388667	20.388667	118.691167
361.837333	55.826111	55.826111	57.039722	9.708889	9.708889	24.272222
362.209026	65.292278	65.292278	31.311167	51.942556	51.942556	84.710056
362.580685	44.418167	44.418167	52.913444	-10.194333	-10.194333	61.408722
362.952308	63.107778	63.107778	84.952778	24.272222	24.272222	91.020833
363.323896	-6.796222	-6.796222	42.961833	51.457111	51.457111	66.020444
363.695449	-22.815889	-22.815889	-16.747833	-19.175056	-19.175056	23.301333
364.066967	83.011000	83.011000	53.884333	5.339889	5.339889	84.224611
364.438450	93.205333	93.205333	81.069222	75.001167	75.001167	122.332000
364.809897	50.486222	50.486222	-19.903222	21.359556	21.359556	51.699833
365.181310	43.690000	43.690000	65.535000	75.243889	75.243889	70.389444
365.552687	3.155389	3.155389	-13.835167	22.573167	22.573167	0.728167
365.924028	106.069611	106.069611	80.583778	83.011000	83.011000	64.806833
366.295335	28.641222	28.641222	-0.485444	-11.407944	-11.407944	31.068444
366.666606	24.514944	24.514944	7.524389	1.456333	1.456333	42.719111
367.037842	99.758833	99.758833	88.836333	99.758833	99.758833	98.545222
367.409043	4.369000	4.369000	-11.407944	-13.835167	-13.835167	10.437056
367.780209	-33.010222	-33.010222	3.398111	-9.951611	-9.951611	-8.738000
368.151339	63.835944	63.835944	49.272611	52.913444	52.913444	35.922889
368.522434	98.302500	98.302500	54.612500	38.835556	38.835556	38.835556
368.893493	36.651056	36.651056	8.738000	6.310778	6.310778	-34.952000
369.264517	67.234056	67.234056	17.476000	45.389056	45.389056	27.184889
369.635506	46.845389	46.845389	68.690389	22.573167	22.573167	75.972056
370.006459	42.476389	42.476389	63.107778	10.922500	10.922500	44.903611
370.377377	18.204167	18.204167	35.194722	8.495278	8.495278	-20.631389
370.748260	47.330833	47.330833	19.417778	-14.563333	-14.563333	82.525556
371.119107	-22.573167	-22.573167	28.398500	13.835167	13.835167	51.457111
371.489918	1.213611	1.213611	14.563333	-30.340278	-30.340278	47.330833
371.860694	-20.388667	-20.388667	12.378833	5.097167	5.097167	-47.088111
372.231435	54.369778	54.369778	49.515333	38.592833	38.592833	19.175056
372.602140	37.621944	37.621944	42.476389	35.194722	35.194722	66.748611
372.972809	64.806833	64.806833	-0.728167	86.651833	86.651833	58.738778
373.343444	26.942167	26.942167	11.165222	18.446889	18.446889	73.059389
373.714042	67.719500	67.719500	43.447278	55.583389	55.583389	68.933111
374.084605	67.719500	67.719500	116.263944	72.573944	72.573944	55.583389
374.455132	61.408722	61.408722	37.136500	28.641222	28.641222	39.563722
374.825624	31.796611	31.796611	41.505500	22.087722	22.087722	35.437444
375.196080	24.514944	24.514944	-10.679778	64.564111	64.564111	36.651056
375.566501	-11.893389	-11.893389	47.573556	42.719111	42.719111	-26.456722
375.936885	-9.708889	-9.708889	-13.349722	12.136111	12.136111	-35.194722
376.307235	35.922889	35.922889	3.155389	-1.699056	-1.699056	-10.194333
376.677548	142.720667	142.720667	109.953167	99.030667	99.030667	118.448444
377.047826	68.690389	68.690389	54.127056	51.699833	51.699833	12.864278
377.418068	31.068444	31.068444	22.573167	65.049556	65.049556	28.641222
377.788275	96.118000	96.118000	29.369389	56.068833	56.068833	87.622722
378.158445	91.506278	91.506278	70.874889	64.806833	64.806833	66.020444
378.528580	5.097167	5.097167	48.787167	46.359944	46.359944	47.573556
378.898679	-6.068056	-6.068056	52.185278	58.253333	58.253333	59.466944
379.268743	12.136111	12.136111	41.262778	-13.349722	-13.349722	3.640833
379.638770	90.778111	90.778111	47.088111	102.914222	102.914222	144.177000
380.008762	82.282833	82.282833	-0.242722	79.855611	79.855611	33.738389
380.378718	100.244278	100.244278	60.195111	123.302889	123.302889	89.321778
380.748638	58.981500	58.981500	16.505111	17.718722	17.718722	68.690389
381.118523	40.049167	40.049167	8.495278	29.126667	29.126667	60.680556
381.488371	36.893778	36.893778	38.107389	32.039333	32.039333	27.184889
381.858184	-26.214000	-26.214000	30.825722	8.980722	8.980722	25.971278
382.227960	62.136889	62.136889	43.932722	40.291889	40.291889	62.136889
382.597701	67.234056	67.234056	19.903222	35.680167	35.680167	15.048778
382.967406	70.389444	70.389444	32.767500	76.457500	76.457500	23.058611
383.337075	37.136500	37.136500	32.282056	50.486222	50.486222	-4.126278
383.706708	37.621944	37.621944	30.340278	13.349722	13.349722	16.990556
384.076304	1.213611	1.213611	33.981111	37.621944	37.621944	81.311944
384.445865	12.864278	12.864278	-7.767111	23.786778	23.786778	74.758444
384.815390	-12.378833	-12.378833	8.252556	36.165611	36.165611	32.524778
385.184879	36.165611	36.165611	33.738389	47.088111	47.088111	43.447278
385.554332	-34.466556	-34.466556	25.000389	-10.194333	-10.194333	10.437056
385.923749	91.749000	91.749000	92.962611	119.662056	119.662056	131.798167
386.293130	53.884333	53.884333	110.924056	136.409889	136.409889	137.623500
386.662474	26.942167	26.942167	100.972444	54.855222	54.855222	63.350500
387.031783	32.767500	32.767500	-14.563333	46.117222	46.117222	-7.281667
387.401055	0.485444	0.485444	-17.718722	-17.718722	-17.718722	46.602667
387.770292	37.136500	37.136500	-7.767111	0.728167	0.728167	18.932333
388.139492	-0.728167	-0.728167	39.321000	-18.932333	-18.932333	-6.796222
388.508656	69.661278	69.661278	51.457111	19.903222	19.903222	81.797389
388.877784	13.349722	13.349722	18.204167	-2.427222	-2.427222	2.427222
389.246876	-1.456333	-1.456333	3.398111	15.534222	15.534222	11.893389
389.615931	-18.689611	-18.689611	37.136500	48.059000	48.059000	28.641222
389.984950	8.252556	8.252556	47.088111	85.923667	85.923667	28.883944
390.353933	54.612500	54.612500	118.933889	91.020833	91.020833	18.204167
390.722880	52.185278	52.185278	93.448056	103.156944	103.156944	106.797778
391.091791	-2.184500	-2.184500	-16.747833	-25.243111	-25.243111	-7.038944
391.460665	54.127056	54.127056	78.399278	101.457889	101.457889	75.972056
391.829503	60.680556	60.680556	129.856389	69.175833	69.175833	76.457500
392.198304	18.204167	18.204167	18.204167	42.476389	42.476389	-12.136111
392.567070	-0.485444	-0.485444	49.272611	63.835944	63.835944	-8.980722
392.935799	-15.776944	-15.776944	27.913056	2.427222	2.427222	-18.204167
393.304491	1.456333	1.456333	56.068833	24.514944	24.514944	39.078278
393.673148	88.836333	88.836333	73.059389	73.059389	73.059389	52.428000
394.041768	2.669944	2.669944	-9.466167	69.418556	69.418556	19.660500
394.410351	48.301722	48.301722	99.273389	71.360333	71.360333	51.942556
394.778898	87.622722	87.622722	113.108556	70.632167	70.632167	148.303278
395.147409	153.157722	153.157722	128.885500	171.361889	171.361889	145.876056
395.515883	4.126278	4.126278	-31.068444	87.865444	87.865444	7.767111
395.884321	36.408333	36.408333	14.563333	7.281667	7.281667	29.126667
396.252722	54.612500	54.612500	83.739167	81.311944	81.311944	110.438611
396.621087	31.796611	31.796611	53.641611	74.273000	74.273000	12.378833
396.989415	-16.262389	-16.262389	43.204556	12.864278	12.864278	49.272611
397.357707	64.078667	64.078667	61.651444	82.282833	82.282833	55.583389
397.725962	19.417778	19.417778	13.349722	84.952778	84.952778	71.603056
398.094181	-12.864278	-12.864278	38.107389	-29.854833	-29.854833	-10.437056
398.462363	53.884333	53.884333	45.389056	-1.941778	-1.941778	-22.573167
398.830508	5.582611	5.582611	34.709278	39.563722	39.563722	-34.466556
399.198617	41.748222	41.748222	59.952389	68.447667	68.447667	42.961833
399.566689	26.942167	26.942167	34.223833	13.592444	13.592444	68.204944
399.934725	15.534222	15.534222	15.534222	59.224222	59.224222	38.592833
400.302724	-17.233278	-17.233278	-8.738000	50.728944	50.728944	-9.951611
400.670687	22.573167	22.573167	5.582611	35.922889	35.922889	50.486222
401.038612	50.000778	50.000778	7.524389	33.010222	33.010222	65.777722
401.406501	21.116833	21.116833	74.515722	56.311556	56.311556	68.447667
401.774354	31.311167	31.311167	-9.951611	8.252556	8.252556	7.038944
402.142169	47.088111	47.088111	-0.242722	26.456722	26.456722	-9.951611
402.509948	90.535389	90.535389	38.350111	66.263167	66.263167	49.272611
402.877690	31.553889	31.553889	57.039722	72.816667	72.816667	21.845000
403.245396	-37.136500	-37.136500	47.816278	30.825722	30.825722	-5.582611
403.613064	-6.310778	-6.310778	-12.378833	54.369778	54.369778	51.942556
403.980696	3.155389	3.155389	26.214000	8.009833	8.009833	-50.243500
404.348291	22.573167	22.573167	72.331222	31.068444	31.068444	60.195111
404.715849	30.583000	30.583000	19.660500	26.942167	26.942167	22.087722
405.083370	44.903611	44.903611	27.913056	-6.068056	-6.068056	25.485833
405.450855	-3.155389	-3.155389	52.670722	32.039333	32.039333	-31.068444
405.818303	125.001944	125.001944	82.525556	71.603056	71.603056	111.652222
406.185713	-25.971278	-25.971278	43.204556	-2.912667	-2.912667	17.718722
406.553087	111.652222	111.652222	123.788333	101.943333	101.943333	94.661667
406.920424	75.243889	75.243889	61.894167	38.835556	38.835556	35.194722
407.287724	63.107778	63.107778	7.281667	38.835556	38.835556	20.631389
407.654987	59.709667	59.709667	102.186056	51.214389	51.214389	57.282444
408.022213	73.787556	73.787556	91.991722	16.747833	16.747833	68.933111
408.389402	117.963000	117.963000	40.291889	94.904389	94.904389	40.291889
408.756554	74.273000	74.273000	96.118000	77.913833	77.913833	66.991333
409.123669	47.330833	47.330833	57.039722	36.408333	36.408333	35.194722
409.490748	-6.553500	-6.553500	34.709278	68.690389	68.690389	40.777333
409.857789	42.233667	42.233667	67.719500	59.224222	59.224222	25.243111
410.224793	54.127056	54.127056	46.845389	80.826500	80.826500	49.272611
410.591760	16.747833	16.747833	28.883944	25.243111	25.243111	14.320611
410.958689	51.214389	51.214389	26.942167	19.660500	19.660500	37.864667
411.325582	65.535000	65.535000	58.253333	101.943333	101.943333	98.302500
411.692438	5.339889	5.339889	27.184889	-3.155389	-3.155389	-18.932333
412.059256	70.874889	70.874889	102.428778	27.184889	27.184889	67.234056
412.426038	-23.786778	-23.786778	57.525167	52.670722	52.670722	40.534611
412.792782	37.621944	37.621944	21.845000	13.349722	13.349722	55.826111
413.159489	73.544833	73.544833	119.662056	119.662056	119.662056	136.652611
413.526159	55.583389	55.583389	11.893389	30.097556	30.097556	-1.456333
413.892792	13.592444	13.592444	18.446889	23.301333	23.301333	43.932722
414.259387	58.253333	58.253333	71.603056	37.621944	37.621944	37.621944
414.625945	-0.728167	-0.728167	4.126278	36.893778	36.893778	2.912667
414.992466	16.019667	16.019667	39.078278	29.369389	29.369389	69.418556
415.358950	84.224611	84.224611	115.778500	76.942944	76.942944	68.447667
415.725396	42.476389	42.476389	67.962222	36.408333	36.408333	65.535000
416.091806	45.146333	45.146333	11.165222	23.301333	23.301333	-10.679778
416.458177	8.009833	8.009833	41.990944	56.554278	56.554278	35.922889
416.824512	35.922889	35.922889	62.622333	32.282056	32.282056	55.340667
417.190809	26.456722	26.456722	-23.301333	47.088111	47.088111	22.815889
417.557069	11.165222	11.165222	28.155778	19.660500	19.660500	25.728556
417.923291	12.864278	12.864278	5.582611	20.145944	20.145944	0.728167
418.289476	40.534611	40.534611	19.903222	66.020444	66.020444	-11.650667
418.655624	-25.728556	-25.728556	-20.874111	8.252556	8.252556	-12.378833
419.021734	69.661278	69.661278	33.252944	21.116833	21.116833	35.680167
419.387807	15.291500	15.291500	20.145944	5.582611	5.582611	38.350111
419.753843	65.535000	65.535000	46.117222	47.330833	47.330833	65.535000
420.119841	19.417778	19.417778	40.049167	27.913056	27.913056	50.971667
420.485801	22.330444	22.330444	27.184889	49.029889	49.029889	12.621556
420.851724	84.952778	84.952778	91.020833	-12.136111	-12.136111	89.807222
421.217609	-28.155778	-28.155778	0.970889	2.184500	2.184500	3.398111
421.583457	62.379611	62.379611	15.048778	49.029889	49.029889	-35.922889
421.949268	44.903611	44.903611	-19.417778	-4.854444	-4.854444	46.117222
422.315041	54.369778	54.369778	53.156167	22.815889	22.815889	44.660889
422.680776	40.777333	40.777333	102.671500	78.399278	78.399278	54.127056
423.046474	108.254111	108.254111	116.749389	96.118000	96.118000	96.118000
423.412134	2.669944	2.669944	34.223833	57.282444	57.282444	93.690778
423.777756	10.194333	10.194333	-5.582611	53.884333	53.884333	-3.155389
424.143341	24.514944	24.514944	3.883556	48.787167	48.787167	37.864667
424.508888	-6.796222	-6.796222	-4.369000	38.107389	38.107389	32.039333
424.874398	56.311556	56.311556	-12.864278	5.339889	5.339889	6.553500
425.239870	-20.874111	-20.874111	7.038944	4.611722	4.611722	5.825333
425.605304	23.058611	23.058611	61.894167	41.262778	41.262778	83.739167
425.970701	10.437056	10.437056	23.786778	28.641222	28.641222	-1.699056
426.336059	43.690000	43.690000	41.262778	16.990556	16.990556	-4.854444
426.701381	37.136500	37.136500	-6.553500	25.000389	25.000389	-10.194333
427.066664	-40.049167	-40.049167	-12.136111	7.281667	7.281667	20.631389
427.431909	4.854444	4.854444	-7.281667	35.194722	35.194722	7.281667
427.797117	-16.262389	-16.262389	-8.980722	28.641222	28.641222	8.009833
428.162287	50.486222	50.486222	63.835944	37.136500	37.136500	54.127056
428.527419	-15.534222	-15.534222	3.883556	34.223833	34.223833	1.456333
428.892514	66.748611	66.748611	25.485833	-21.845000	-21.845000	52.185278
429.257570	3.398111	3.398111	83.496444	22.815889	22.815889	42.233667
429.622589	50.971667	50.971667	61.894167	89.807222	89.807222	60.680556
429.987570	32.767500	32.767500	4.854444	-46.117222	-46.117222	9.708889
430.352513	-4.854444	-4.854444	26.699444	3.640833	3.640833	-3.640833
430.717418	64.564111	64.564111	77.913833	94.904389	94.904389	70.632167
431.082285	26.214000	26.214000	17.718722	45.631778	45.631778	72.331222
431.447114	8.738000	8.738000	11.165222	19.660500	19.660500	36.651056
431.811905	-8.495278	-8.495278	43.690000	32.767500	32.767500	-9.708889
432.176659	8.980722	8.980722	47.816278	0.485444	0.485444	53.884333
432.541374	64.321389	64.321389	32.767500	7.281667	7.281667	81.311944
432.906051	10.194333	10.194333	50.243500	8.980722	8.980722	57.525167
433.270691	-11.650667	-11.650667	27.184889	4.126278	4.126278	-40.777333
433.635292	12.136111	12.136111	20.631389	58.253333	58.253333	35.194722
433.999855	16.505111	16.505111	54.127056	79.612889	79.612889	21.359556
434.364380	30.583000	30.583000	66.991333	79.127444	79.127444	97.331611
434.728867	1.699056	1.699056	11.407944	53.884333	53.884333	56.311556
435.093317	98.302500	98.302500	99.516111	110.438611	110.438611	63.107778
435.457728	60.680556	60.680556	134.710833	74.030278	74.030278	42.476389
435.822100	47.573556	47.573556	17.233278	56.068833	56.068833	29.369389
436.186435	41.262778	41.262778	80.098333	27.913056	27.913056	8.495278
436.550732	80.826500	80.826500	120.875667	84.467333	84.467333	89.321778
436.914990	43.932722	43.932722	30.583000	65.777722	65.777722	96.118000
437.279210	50.728944	50.728944	106.555056	50.728944	50.728944	50.728944
437.643392	-94.661667	-94.661667	27.913056	-4.854444	-4.854444	-13.349722
438.007536	-32.524778	-32.524778	-5.825333	2.669944	2.669944	39.078278
438.371642	29.369389	29.369389	-3.398111	41.505500	41.505500	73.059389
438.735709	-14.563333	-14.563333	37.621944	44.903611	44.903611	35.194722
439.099739	75.729333	75.729333	72.088500	8.980722	8.980722	64.806833
439.463730	58.738778	58.738778	61.166000	70.874889	70.874889	66.020444
439.827682	45.631778	45.631778	48.059000	8.009833	8.009833	26.214000
440.191597	24.272222	24.272222	83.739167	15.776944	15.776944	-4.854444
440.555473	71.845778	71.845778	42.719111	92.477167	92.477167	73.059389
440.919310	85.680944	85.680944	62.622333	116.021222	116.021222	69.904000
441.283110	59.466944	59.466944	138.351667	100.729722	100.729722	76.457500
441.646871	56.554278	56.554278	54.127056	78.399278	78.399278	69.904000
442.010593	35.680167	35.680167	51.457111	68.447667	68.447667	39.321000
442.374278	-0.242722	-0.242722	41.020056	34.952000	34.952000	53.156167
442.737924	62.136889	62.136889	93.690778	53.641611	53.641611	94.904389
443.101531	63.835944	63.835944	69.904000	78.399278	78.399278	68.690389
443.465100	21.602278	21.602278	73.787556	22.815889	22.815889	48.301722
443.828631	28.398500	28.398500	53.884333	118.205722	118.205722	46.602667
444.192123	4.126278	4.126278	7.767111	-31.068444	-31.068444	32.039333
444.555577	37.621944	37.621944	21.845000	3.640833	3.640833	-4.854444
444.918992	27.913056	27.913056	52.185278	33.981111	33.981111	65.535000
445.282368	33.981111	33.981111	60.680556	33.981111	33.981111	70.389444
445.645707	1.699056	1.699056	-23.786778	-51.699833	-51.699833	-46.845389
446.009006	-8.980722	-8.980722	21.359556	55.340667	55.340667	16.505111
446.372267	74.273000	74.273000	98.545222	110.681333	110.681333	47.573556
446.735490	-12.621556	-12.621556	-13.835167	1.941778	1.941778	58.981500
447.098674	25.971278	25.971278	34.466556	49.029889	49.029889	73.302111
447.461819	9.466167	9.466167	36.165611	38.592833	38.592833	45.874500
447.824926	38.107389	38.107389	39.321000	18.689611	18.689611	39.321000
448.187994	43.204556	43.204556	18.932333	56.554278	56.554278	8.009833
448.551023	67.719500	67.719500	34.952000	123.545611	123.545611	53.156167
448.914014	48.544444	48.544444	72.816667	35.194722	35.194722	47.330833
449.276966	44.660889	44.660889	36.165611	-19.660500	-19.660500	50.728944
449.639880	-7.524389	-7.524389	60.437833	30.097556	30.097556	58.010611
450.002754	57.282444	57.282444	75.486611	68.204944	68.204944	65.777722
450.365590	6.553500	6.553500	24.757667	-8.009833	-8.009833	15.048778
450.728388	48.301722	48.301722	27.670333	28.883944	28.883944	25.243111
451.091146	8.252556	8.252556	-8.738000	20.388667	20.388667	9.466167
451.453866	80.098333	80.098333	31.553889	63.107778	63.107778	95.875278
451.816547	105.341444	105.341444	151.458667	151.458667	151.458667	108.982278
452.179189	84.952778	84.952778	38.835556	57.039722	57.039722	83.739167
452.541793	43.932722	43.932722	58.496056	66.991333	66.991333	62.136889
452.904357	-7.281667	-7.281667	25.485833	12.136111	12.136111	26.699444
453.266883	36.893778	36.893778	41.748222	40.534611	40.534611	52.670722
453.629370	28.155778	28.155778	73.059389	50.000778	50.000778	103.399667
453.991818	2.669944	2.669944	-37.379222	12.378833	12.378833	23.301333
454.354227	57.039722	57.039722	20.631389	121.361111	121.361111	92.234444
454.716597	72.331222	72.331222	35.922889	60.195111	60.195111	103.885111
455.078929	71.603056	71.603056	77.671111	57.039722	57.039722	44.903611
455.441221	81.797389	81.797389	38.107389	40.534611	40.534611	69.661278
455.803475	85.438222	85.438222	121.846556	45.389056	45.389056	52.670722
456.165689	31.311167	31.311167	87.137278	16.747833	16.747833	14.320611
456.527865	62.622333	62.622333	99.030667	38.350111	38.350111	37.136500
456.890001	60.923278	60.923278	58.496056	56.068833	56.068833	57.282444
457.252099	64.078667	64.078667	20.388667	117.477556	117.477556	73.787556
457.614157	19.660500	19.660500	76.700222	40.291889	40.291889	51.214389
457.976177	47.573556	47.573556	87.622722	76.700222	76.700222	91.263556
458.338157	62.865056	62.865056	39.806444	43.447278	43.447278	50.728944
458.700099	-16.747833	-16.747833	30.583000	73.059389	73.059389	69.418556
459.062001	67.719500	67.719500	89.564500	48.301722	48.301722	53.156167
459.423864	178.643556	178.643556	162.866611	195.634111	195.634111	86.409111
459.785688	53.156167	53.156167	53.156167	112.623111	112.623111	123.545611
460.147473	11.407944	11.407944	38.107389	4.126278	4.126278	-10.437056
460.509219	71.845778	71.845778	92.477167	76.700222	76.700222	86.409111
460.870926	17.961444	17.961444	-6.310778	3.398111	3.398111	-3.883556
461.232593	-30.825722	-30.825722	26.214000	-13.835167	-13.835167	10.437056
461.594221	31.068444	31.068444	35.922889	48.059000	48.059000	60.195111
461.955810	101.457889	101.457889	33.495667	78.399278	78.399278	-15.048778
462.317360	34.709278	34.709278	66.263167	62.622333	62.622333	11.650667
462.678871	101.700611	101.700611	118.691167	93.205333	93.205333	105.341444
463.040342	39.321000	39.321000	58.738778	51.457111	51.457111	34.466556
463.401775	29.126667	29.126667	50.971667	-3.640833	-3.640833	35.194722
463.763167	-15.534222	-15.534222	33.010222	0.242722	0.242722	-25.243111
464.124521	25.728556	25.728556	25.728556	-5.825333	-5.825333	19.660500
464.485835	118.933889	118.933889	66.748611	97.088889	97.088889	157.769444
464.847110	17.476000	17.476000	98.787944	56.311556	56.311556	91.506278
465.208346	57.525167	57.525167	24.757667	90.292667	90.292667	30.825722
465.569542	79.612889	79.612889	57.767889	77.185667	77.185667	140.293444
465.930699	75.001167	75.001167	163.594778	76.214778	76.214778	85.923667
466.291817	73.059389	73.059389	1.456333	48.787167	48.787167	34.223833
466.652895	43.447278	43.447278	9.466167	43.447278	43.447278	47.088111
467.013933	51.699833	51.699833	18.932333	45.631778	45.631778	102.671500
467.374933	69.175833	69.175833	74.030278	70.389444	70.389444	54.612500
467.735892	22.815889	22.815889	49.515333	3.398111	3.398111	51.942556
468.096813	96.846167	96.846167	118.691167	94.418944	94.418944	121.118389
468.457694	20.388667	20.388667	16.747833	54.369778	54.369778	43.447278
468.818535	106.312333	106.312333	108.739556	69.904000	69.904000	82.040111
469.179337	86.409111	86.409111	33.010222	-5.825333	-5.825333	24.514944
469.540099	33.495667	33.495667	99.030667	105.098722	105.098722	78.399278
469.900822	83.496444	83.496444	49.515333	76.214778	76.214778	-16.019667
470.261506	110.924056	110.924056	87.865444	93.933500	93.933500	72.088500
470.622149	52.913444	52.913444	65.049556	57.767889	57.767889	126.943722
470.982753	47.330833	47.330833	37.621944	26.699444	26.699444	-4.854444
471.343318	110.438611	110.438611	139.565278	80.098333	80.098333	106.797778
471.703843	-57.767889	-57.767889	-31.068444	-34.709278	-34.709278	30.825722
472.064328	69.418556	69.418556	104.613278	69.418556	69.418556	138.594389
472.424774	26.699444	26.699444	61.894167	3.640833	3.640833	81.311944
472.785180	26.699444	26.699444	8.495278	57.039722	57.039722	83.739167
473.145546	7.038944	7.038944	-36.651056	-23.301333	-23.301333	54.369778
473.505873	58.010611	58.010611	41.020056	34.952000	34.952000	27.670333
473.866160	-2.184500	-2.184500	-43.447278	-32.524778	-32.524778	-54.369778
474.226407	95.875278	95.875278	24.272222	24.272222	24.272222	27.913056
474.586615	49.272611	49.272611	48.059000	25.000389	25.000389	56.554278
474.946783	44.175444	44.175444	39.321000	74.515722	74.515722	61.166000
475.306911	54.369778	54.369778	64.078667	72.573944	72.573944	55.583389
475.666999	36.893778	36.893778	28.398500	89.079056	89.079056	27.184889
476.027047	56.068833	56.068833	-8.252556	35.437444	35.437444	-13.107000
476.387056	54.127056	54.127056	21.359556	25.000389	25.000389	38.350111
476.747025	36.651056	36.651056	48.787167	52.428000	52.428000	79.127444
477.106954	44.175444	44.175444	91.506278	16.262389	16.262389	30.825722
477.466843	37.864667	37.864667	45.146333	62.136889	62.136889	98.545222
477.826692	122.574722	122.574722	112.865833	125.001944	125.001944	149.274167
478.186502	78.399278	78.399278	50.486222	112.380389	112.380389	102.671500
478.546271	26.942167	26.942167	-14.320611	46.359944	46.359944	6.310778
478.906001	119.904778	119.904778	96.846167	56.797000	56.797000	91.991722
479.265690	-40.049167	-40.049167	31.553889	38.835556	38.835556	50.971667
479.625340	76.942944	76.942944	92.719889	101.215167	101.215167	63.593222
479.984950	37.136500	37.136500	49.272611	32.282056	32.282056	31.068444
480.344519	61.651444	61.651444	49.515333	91.991722	91.991722	39.806444
480.704049	-34.466556	-34.466556	49.272611	72.331222	72.331222	31.068444
481.063539	-15.048778	-15.048778	20.145944	37.136500	37.136500	50.486222
481.422989	115.293056	115.293056	67.962222	86.166389	86.166389	106.797778
481.782398	44.418167	44.418167	75.972056	139.079833	139.079833	35.922889
482.141768	62.865056	62.865056	117.477556	106.555056	106.555056	82.282833
482.501098	67.962222	67.962222	47.330833	4.854444	4.854444	27.913056
482.860387	8.009833	8.009833	37.136500	-0.485444	-0.485444	23.786778
483.219637	92.719889	92.719889	23.544056	87.865444	87.865444	28.398500
483.578846	-10.679778	-10.679778	5.097167	-2.184500	-2.184500	-61.651444
483.938015	63.593222	63.593222	0.485444	72.088500	72.088500	45.389056
484.297144	24.272222	24.272222	9.708889	19.417778	19.417778	-8.495278
484.656233	19.660500	19.660500	69.418556	26.942167	26.942167	33.010222
485.015282	10.922500	10.922500	-15.776944	16.990556	16.990556	30.340278
485.374291	87.380000	87.380000	103.156944	47.330833	47.330833	26.699444
485.733259	91.991722	91.991722	8.252556	67.719500	67.719500	33.738389
486.092187	63.835944	63.835944	51.699833	20.145944	20.145944	65.049556
486.451075	63.593222	63.593222	29.612111	84.224611	84.224611	148.546000
486.809923	7.767111	7.767111	92.719889	64.806833	64.806833	23.544056
487.168730	54.612500	54.612500	41.262778	83.739167	83.739167	23.058611
487.527497	118.691167	118.691167	107.768667	127.186444	127.186444	93.205333
487.886224	35.194722	35.194722	58.253333	75.243889	75.243889	19.417778
488.244910	25.243111	25.243111	71.360333	45.874500	45.874500	55.583389
488.603557	74.758444	74.758444	85.680944	57.767889	57.767889	12.864278
488.962162	78.399278	78.399278	41.990944	46.845389	46.845389	33.495667
489.320728	-66.505889	-66.505889	26.942167	57.282444	57.282444	11.165222
489.679253	127.186444	127.186444	78.642000	77.428389	77.428389	67.719500
490.037738	50.000778	50.000778	40.291889	17.233278	17.233278	83.981889
490.396182	107.283222	107.283222	59.952389	61.166000	61.166000	133.982667
490.754586	114.322167	114.322167	45.146333	85.195500	85.195500	77.913833
491.112950	123.302889	123.302889	73.544833	101.457889	101.457889	106.312333
491.471273	84.224611	84.224611	46.602667	57.525167	57.525167	0.485444
491.829555	115.050333	115.050333	107.768667	100.487000	100.487000	60.437833
492.187798	61.651444	61.651444	-1.456333	34.952000	34.952000	22.815889
492.545999	94.904389	94.904389	63.350500	54.855222	54.855222	43.932722
492.904160	78.642000	78.642000	75.001167	62.865056	62.865056	39.806444
493.262281	-3.398111	-3.398111	40.291889	26.942167	26.942167	5.097167
493.620361	83.981889	83.981889	122.817444	43.932722	43.932722	60.923278
493.978401	6.796222	6.796222	-12.621556	5.582611	5.582611	10.437056
494.336400	29.126667	29.126667	115.293056	93.448056	93.448056	80.098333
494.694358	-11.893389	-11.893389	18.446889	-33.738389	-33.738389	31.796611
495.052276	68.204944	68.204944	6.310778	18.446889	18.446889	25.728556
495.410153	72.088500	72.088500	47.816278	36.893778	36.893778	7.767111
495.767990	83.739167	83.739167	71.603056	86.166389	86.166389	76.457500
496.125786	25.000389	25.000389	32.282056	84.467333	84.467333	37.136500
496.483541	126.943722	126.943722	131.798167	73.544833	73.544833	79.612889
496.841255	20.388667	20.388667	83.496444	72.573944	72.573944	43.447278
497.198929	84.224611	84.224611	81.797389	101.215167	101.215167	36.893778
497.556563	131.070000	131.070000	44.903611	139.565278	139.565278	74.030278
497.914155	53.156167	53.156167	96.846167	47.088111	47.088111	44.660889
498.271707	94.904389	94.904389	104.613278	115.535778	115.535778	119.176611
498.629218	8.738000	8.738000	18.446889	18.446889	18.446889	45.146333
498.986688	64.078667	64.078667	-13.592444	76.214778	76.214778	83.496444
499.344118	50.971667	50.971667	80.098333	48.544444	48.544444	86.166389
499.701506	-32.524778	-32.524778	-32.524778	26.942167	26.942167	6.310778
500.058854	27.670333	27.670333	7.038944	49.515333	49.515333	61.651444
500.416161	85.195500	85.195500	107.040500	124.031056	124.031056	145.876056
500.773428	43.932722	43.932722	37.864667	31.796611	31.796611	80.341056
501.130653	3.398111	3.398111	11.893389	20.388667	20.388667	17.961444
501.487837	22.815889	22.815889	32.524778	44.660889	44.660889	85.923667
501.844981	77.185667	77.185667	58.981500	74.758444	74.758444	92.962611
502.202084	50.486222	50.486222	-33.252944	48.059000	48.059000	17.718722
502.559146	71.603056	71.603056	65.535000	64.321389	64.321389	41.262778
502.916167	68.204944	68.204944	59.709667	83.981889	83.981889	88.836333
503.273146	90.535389	90.535389	92.962611	28.641222	28.641222	69.904000
503.630085	18.204167	18.204167	44.903611	49.758056	49.758056	74.030278
503.986984	17.476000	17.476000	55.097944	83.011000	83.011000	23.544056
504.343841	21.116833	21.116833	56.311556	8.980722	8.980722	59.952389
504.700657	66.505889	66.505889	91.991722	76.214778	76.214778	82.282833
505.057432	144.177000	144.177000	91.991722	104.127833	104.127833	203.643944
505.414166	63.350500	63.350500	36.651056	45.146333	45.146333	52.428000
505.770858	91.749000	91.749000	45.631778	78.399278	78.399278	99.030667
506.127510	67.476778	67.476778	61.408722	32.282056	32.282056	80.826500
506.484121	-3.398111	-3.398111	23.301333	69.418556	69.418556	48.787167
506.840691	30.340278	30.340278	25.485833	18.204167	18.204167	-7.281667
507.197219	15.291500	15.291500	1.941778	66.263167	66.263167	103.885111
507.553707	24.757667	24.757667	38.107389	108.496833	108.496833	21.116833
507.910153	12.378833	12.378833	17.233278	29.369389	29.369389	23.301333
508.266558	36.651056	36.651056	25.728556	64.564111	64.564111	-2.184500
508.622922	14.563333	14.563333	48.544444	48.544444	48.544444	37.621944
508.979245	51.942556	51.942556	14.320611	30.097556	30.097556	44.660889
509.335527	88.108167	88.108167	94.176222	54.127056	54.127056	85.680944
509.691767	41.505500	41.505500	22.087722	66.991333	66.991333	34.223833
510.047966	-7.281667	-7.281667	7.281667	-0.000000	-0.000000	1.213611
510.404124	16.505111	16.505111	57.767889	33.495667	33.495667	39.563722
510.760241	48.301722	48.301722	32.524778	31.311167	31.311167	100.487000
511.116316	-4.611722	-4.611722	24.514944	34.223833	34.223833	20.874111
511.472350	50.000778	50.000778	65.777722	86.409111	86.409111	56.068833
511.828343	108.254111	108.254111	37.864667	77.913833	77.913833	66.991333
512.184295	79.612889	79.612889	33.495667	58.981500	58.981500	49.272611
512.540205	84.224611	84.224611	18.689611	29.612111	29.612111	18.689611
512.896073	113.108556	113.108556	86.409111	58.496056	58.496056	113.108556
513.251901	63.350500	63.350500	46.359944	48.787167	48.787167	37.864667
513.607687	94.176222	94.176222	66.263167	57.767889	57.767889	55.340667
513.963431	22.087722	22.087722	98.545222	47.573556	47.573556	74.273000
514.319135	52.428000	52.428000	45.146333	108.254111	108.254111	70.632167
514.674796	110.438611	110.438611	15.776944	93.448056	93.448056	81.311944
515.030417	63.350500	63.350500	43.932722	83.981889	83.981889	51.214389
515.385996	30.097556	30.097556	27.670333	98.059778	98.059778	59.224222
515.741533	56.554278	56.554278	94.176222	95.389833	95.389833	101.457889
516.097029	41.020056	41.020056	65.292278	71.360333	71.360333	21.602278
516.452483	39.563722	39.563722	57.767889	27.427611	27.427611	27.427611
516.807896	100.972444	100.972444	87.622722	82.768278	82.768278	75.486611
517.163268	29.854833	29.854833	57.767889	88.108167	88.108167	44.418167
517.518597	71.603056	71.603056	87.380000	69.175833	69.175833	75.243889
517.873886	8.252556	8.252556	9.466167	49.515333	49.515333	64.078667
518.229132	41.262778	41.262778	37.621944	26.699444	26.699444	100.729722
518.584337	129.370944	129.370944	56.554278	44.418167	44.418167	101.457889
518.939501	56.554278	56.554278	61.408722	61.408722	61.408722	41.990944
519.294623	88.836333	88.836333	88.836333	77.913833	77.913833	113.108556
519.649703	79.370167	79.370167	80.583778	28.398500	28.398500	38.107389
520.004742	65.292278	65.292278	44.660889	19.175056	19.175056	71.360333
520.359738	89.321778	89.321778	60.195111	91.749000	91.749000	23.786778
520.714694	46.117222	46.117222	48.544444	59.466944	59.466944	49.758056
521.069607	25.728556	25.728556	75.486611	36.651056	36.651056	29.369389
521.424479	122.817444	122.817444	79.127444	113.108556	113.108556	121.603833
521.779309	119.419333	119.419333	108.496833	116.992111	116.992111	131.555444
522.134097	34.952000	34.952000	64.078667	36.165611	36.165611	31.311167
522.488844	102.186056	102.186056	70.632167	80.341056	80.341056	82.768278
522.843549	71.603056	71.603056	57.039722	64.321389	64.321389	69.175833
523.198211	66.263167	66.263167	67.476778	107.525944	107.525944	102.671500
523.552833	76.214778	76.214778	83.496444	33.738389	33.738389	45.874500
523.907412	106.069611	106.069611	97.574333	108.496833	108.496833	92.719889
524.261949	-6.310778	-6.310778	22.815889	-19.660500	-19.660500	37.379222
524.616445	34.466556	34.466556	28.398500	12.621556	12.621556	34.466556
524.970899	39.563722	39.563722	113.594000	20.145944	20.145944	111.166778
525.325311	143.448833	143.448833	139.808000	179.857167	179.857167	136.167167
525.679681	41.748222	41.748222	67.234056	62.379611	62.379611	49.029889
526.034009	58.010611	58.010611	82.282833	107.768667	107.768667	55.583389
526.388295	76.700222	76.700222	74.273000	48.787167	48.787167	83.981889
526.742539	9.466167	9.466167	59.224222	26.456722	26.456722	20.388667
527.096742	94.418944	94.418944	105.341444	95.632556	95.632556	95.632556
527.450902	130.099111	130.099111	41.505500	58.496056	58.496056	64.564111
527.805020	27.427611	27.427611	22.573167	11.650667	11.650667	49.272611
528.159096	83.981889	83.981889	115.535778	75.486611	75.486611	104.613278
528.513131	61.408722	61.408722	56.554278	67.476778	67.476778	43.204556
528.867123	58.496056	58.496056	58.496056	74.273000	74.273000	80.341056
529.221073	9.466167	9.466167	13.107000	42.233667	42.233667	30.097556
529.574981	114.564889	114.564889	150.973222	150.973222	150.973222	115.778500
529.928847	76.214778	76.214778	123.545611	90.778111	90.778111	115.050333
530.282671	110.438611	110.438611	143.206111	135.924444	135.924444	162.623889
530.636453	221.119944	221.119944	215.051889	199.274944	199.274944	179.857167
530.990193	192.721444	192.721444	247.333944	157.526722	157.526722	185.439778
531.343891	90.049944	90.049944	171.361889	115.535778	115.535778	91.263556
531.697546	189.808778	189.808778	194.663222	165.536556	165.536556	178.886278
532.051159	112.380389	112.380389	213.110111	148.788722	148.788722	124.516500
532.404730	107.040500	107.040500	28.155778	28.155778	28.155778	109.467722
532.758259	82.040111	82.040111	65.049556	45.631778	45.631778	90.535389
533.111746	87.380000	87.380000	80.098333	77.671111	77.671111	117.720278
533.465190	54.855222	54.855222	86.409111	73.059389	73.059389	57.282444
533.818593	28.641222	28.641222	66.263167	79.612889	79.612889	73.544833
534.171952	67.962222	67.962222	97.088889	80.098333	80.098333	54.612500
534.525270	105.098722	105.098722	125.730111	80.826500	80.826500	66.263167
534.878545	118.205722	118.205722	100.001556	118.205722	118.205722	149.759611
535.231778	55.583389	55.583389	60.437833	30.097556	30.097556	79.855611
535.584969	63.107778	63.107778	61.894167	37.621944	37.621944	41.262778
535.938118	175.488167	175.488167	114.807611	160.924833	160.924833	118.448444
536.291224	134.468111	134.468111	66.505889	89.564500	89.564500	84.710056
536.644287	69.175833	69.175833	104.370556	99.516111	99.516111	111.652222
536.997309	89.807222	89.807222	33.981111	67.962222	67.962222	78.884722
537.350288	51.214389	51.214389	86.409111	69.418556	69.418556	75.486611
537.703224	64.564111	64.564111	45.146333	50.000778	50.000778	108.254111
538.056118	70.146722	70.146722	102.914222	61.651444	61.651444	132.040889
538.408970	164.565667	164.565667	120.875667	180.342611	180.342611	191.265111
538.761779	46.845389	46.845389	69.904000	63.835944	63.835944	55.340667
539.114546	134.710833	134.710833	78.884722	76.457500	76.457500	123.788333
539.467270	77.428389	77.428389	10.679778	38.592833	38.592833	54.369778
539.819951	86.651833	86.651833	72.088500	104.856000	104.856000	110.924056
540.172591	157.526722	157.526722	242.479500	168.449222	168.449222	204.857556
540.525187	71.360333	71.360333	104.127833	68.933111	68.933111	50.728944
540.877741	63.593222	63.593222	131.555444	61.166000	61.166000	73.302111
541.230253	179.614444	179.614444	154.128611	98.302500	98.302500	140.778889
541.582722	38.107389	38.107389	72.088500	91.506278	91.506278	97.574333
541.935148	134.468111	134.468111	127.186444	116.263944	116.263944	112.623111
542.287532	152.915000	152.915000	108.011389	126.215556	126.215556	156.555833
542.639873	102.428778	102.428778	125.487389	158.254889	158.254889	137.623500
542.992172	163.594778	163.594778	157.526722	138.108944	138.108944	178.158111
543.344427	219.663611	219.663611	260.926389	200.245833	200.245833	228.158889
543.696641	149.516889	149.516889	93.690778	142.235222	142.235222	177.429944
544.048811	257.285556	257.285556	259.712778	200.245833	200.245833	226.945278
544.400939	421.851222	421.851222	381.802056	387.870111	387.870111	397.579000
544.753024	375.005833	375.005833	421.123056	356.801667	356.801667	351.947222
545.105066	355.588056	355.588056	385.928333	360.442500	360.442500	399.278056
545.457066	376.219444	376.219444	298.548333	343.451944	343.451944	309.470833
545.809023	276.460611	276.460611	261.897278	298.305611	298.305611	293.451167
546.160937	204.857556	204.857556	198.789500	233.984222	233.984222	247.333944
546.512808	158.983056	158.983056	225.731667	166.264722	166.264722	192.964167
546.864636	164.322944	164.322944	181.313500	217.721833	217.721833	206.799333
547.216422	211.653778	211.653778	249.275722	225.003500	225.003500	187.381556
547.568165	207.770222	207.770222	255.101056	230.828833	230.828833	280.586889
547.919865	235.440556	235.440556	205.100278	168.691944	168.691944	166.264722
548.271522	219.906333	219.906333	289.082167	223.547167	223.547167	289.082167
548.623136	206.071167	206.071167	200.003111	235.197833	235.197833	195.148667
548.974707	223.304444	223.304444	216.022778	243.935833	243.935833	239.081389
549.326236	302.674611	302.674611	245.634889	240.780444	240.780444	365.782389
549.677721	299.519222	299.519222	326.218667	327.432278	327.432278	309.228111
550.029164	319.179722	319.179722	259.712778	327.675000	327.675000	333.743056
550.380563	335.199389	335.199389	350.976333	352.189944	352.189944	310.927167
550.731920	368.695056	368.695056	289.810333	277.674222	277.674222	328.645889
551.083233	274.518833	274.518833	213.838278	332.772167	332.772167	330.344944
551.434504	391.753667	391.753667	395.394500	351.704500	351.704500	380.831167
551.785731	407.045167	407.045167	447.094333	386.413778	386.413778	449.521556
552.136916	434.472778	434.472778	382.287500	399.278056	399.278056	416.268611
552.488057	417.724944	417.724944	539.086056	552.435778	552.435778	514.813833
552.839156	511.901167	511.901167	511.901167	510.687556	510.687556	539.814222
553.190211	553.406667	553.406667	496.366944	536.416111	536.416111	498.794167
553.541223	594.669444	594.669444	531.561667	532.775278	532.775278	548.552222
553.892193	710.205222	710.205222	693.214667	678.651333	678.651333	733.263833
554.243119	760.934167	760.934167	701.467222	696.612778	696.612778	685.690278
554.594002	785.206389	785.206389	699.040000	758.506944	758.506944	791.274444
554.944841	799.527000	799.527000	806.808667	791.031722	791.031722	743.700889
555.295638	889.091500	889.091500	915.790944	884.237056	884.237056	874.528167
555.646391	768.458556	768.458556	875.256333	887.392444	887.392444	846.129667
555.997101	950.257500	950.257500	1031.569444	938.121389	938.121389	963.607222
556.347768	986.423111	986.423111	997.345611	998.559222	998.559222	1039.822000
556.698392	1054.628056	1054.628056	1031.569444	1069.191389	1069.191389	1044.919167
557.048972	1207.300333	1207.300333	1163.610333	1173.319222	1173.319222	1157.542278
557.399510	1137.639056	1137.639056	1212.882944	1238.368778	1238.368778	1274.777111
557.750004	1281.816056	1281.816056	1361.914389	1380.118556	1380.118556	1398.322722
558.100454	1405.118944	1405.118944	1309.243667	1366.283389	1366.283389	1390.555611
558.450862	1362.885278	1362.885278	1394.439167	1441.770000	1441.770000	1410.216111
558.801226	1493.227111	1493.227111	1521.140167	1510.217667	1510.217667	1438.614611
559.151546	1503.906889	1503.906889	1586.432444	1684.734944	1684.734944	1614.345500
559.501824	1586.917889	1586.917889	1605.122056	1664.589000	1664.589000	1624.539833
559.852058	1787.163722	1787.163722	1762.891500	1772.600389	1772.600389	1821.144833
560.202248	1899.544111	1899.544111	1892.262444	1891.048833	1891.048833	1971.147167
560.552395	1948.331278	1948.331278	1995.662111	2015.079889	2015.079889	2030.856833
560.902499	2072.119611	2072.119611	2006.584611	2016.293500	2016.293500	2134.013778
561.252560	2103.916222	2103.916222	2177.946500	2187.655389	2187.655389	2209.500389
561.602576	2317.269056	2317.269056	2325.764333	2317.269056	2317.269056	2388.872111
561.952550	2487.417333	2487.417333	2515.330389	2460.717889	2460.717889	2562.661222
562.302480	2634.264278	2634.264278	2596.642333	2606.351222	2606.351222	2741.062056
562.652366	2902.957778	2902.957778	2833.781944	2915.093889	2915.093889	2979.415278
563.002209	3023.348000	3023.348000	3007.571056	3025.775222	3025.775222	3202.962444
563.352009	3415.587111	3415.587111	3319.711833	3342.770444	3342.770444	3574.570167
563.701765	3608.551278	3608.551278	3653.454889	3641.318778	3641.318778	3823.360444
564.051477	3903.216056	3903.216056	4074.335222	4127.734111	4127.734111	4262.444944
564.401146	4385.990556	4385.990556	4405.408333	4481.865833	4481.865833	4644.489722
564.750771	4795.462944	4795.462944	4893.765444	4891.338222	4891.338222	5115.856278
565.100353	5370.714611	5370.714611	5345.228778	5473.871556	5473.871556	5674.117389
565.449891	5905.917111	5905.917111	5858.586278	6079.463500	6079.463500	6382.866278
565.799385	6656.656944	6656.656944	6563.208889	6782.872500	6782.872500	7127.538056
566.148836	7278.754000	7278.754000	7387.979000	7511.767333	7511.767333	7883.132333
566.498243	8066.144889	8066.144889	8209.351000	8450.859611	8450.859611	8805.234056
566.847607	9234.366944	9234.366944	9088.733611	9331.455833	9331.455833	9740.442778
567.196927	10143.604389	10143.604389	10022.243278	10317.150778	10317.150778	10717.642444
567.546203	11130.270222	11130.270222	11158.183278	11432.459389	11432.459389	12082.954944
567.895435	12348.735778	12348.735778	12115.722444	12572.040222	12572.040222	13051.416611
568.244624	13541.715500	13541.715500	13479.821333	13774.728833	13774.728833	14439.787722
568.593768	14890.037444	14890.037444	14864.551611	15178.876889	15178.876889	15894.907444
568.942870	16477.440778	16477.440778	16255.349944	16647.346333	16647.346333	17223.811611
569.291927	17870.909056	17870.909056	17691.294611	18300.527389	18300.527389	18686.455722
569.640940	19152.725111	19152.725111	19304.426500	19664.869000	19664.869000	20163.663167
569.989910	20787.702000	20787.702000	20384.783111	21320.477278	21320.477278	21621.452833
570.338836	22276.074667	22276.074667	22034.566056	23168.078833	23168.078833	23431.432444
570.687718	24101.831222	24101.831222	23382.159833	24459.846500	24459.846500	24896.746500
571.036557	25253.790889	25253.790889	24915.193389	25847.246722	25847.246722	26130.018111
571.385351	26510.121111	26510.121111	25886.325000	27203.093056	27203.093056	27363.289722
571.734101	28046.552778	28046.552778	27538.049722	28801.418889	28801.418889	28563.551111
572.082808	29209.434944	29209.434944	28571.075500	30106.293556	30106.293556	29690.024944
572.431471	30518.678611	30518.678611	29875.464722	31180.096667	31180.096667	31099.998333
572.780089	31420.391667	31420.391667	30340.277778	32138.849444	32138.849444	31795.397500
573.128664	32321.133833	32321.133833	31255.583278	32842.986611	32842.986611	32779.878833
573.477195	32529.389500	32529.389500	31358.254778	33223.575056	33223.575056	32721.140056
573.825682	32974.299333	32974.299333	31783.746833	33304.401556	33304.401556	33043.475167
574.174125	32909.249778	32909.249778	31892.243667	33466.297278	33466.297278	33211.438944
574.522524	32293.948944	32293.948944	31853.408111	33348.577000	33348.577000	32630.119222
574.870879	31962.633111	31962.633111	31650.735056	33351.004222	33351.004222	32611.915056
575.219189	31445.392056	31445.392056	30973.297333	32480.602333	32480.602333	31750.008444
575.567456	30413.579889	30413.579889	30042.214889	31309.224889	31309.224889	30964.559333
575.915679	29333.951444	29333.951444	28776.903944	30246.587000	30246.587000	29318.174500
576.263858	27574.943500	27574.943500	27403.824333	28083.446556	28083.446556	27817.665722
576.611992	25826.615333	25826.615333	25568.116167	26422.498389	26422.498389	25785.352556
576.960083	24467.856333	24467.856333	24339.213556	24660.820500	24660.820500	24217.852444
577.308129	22719.042722	22719.042722	22075.828833	22510.301611	22510.301611	22364.668278
577.656131	20589.397944	20589.397944	20569.980167	20684.059611	20684.059611	20375.802389
578.004089	18785.971833	18785.971833	18580.871556	18908.546556	18908.546556	18790.826278
578.352003	17196.626722	17196.626722	16975.749500	17220.898944	17220.898944	16867.738111
578.699873	15320.141222	15320.141222	15127.177056	15396.598722	15396.598722	15502.182889
579.047698	13936.139111	13936.139111	13928.857444	14073.277167	14073.277167	14033.228000
579.395479	12648.497722	12648.497722	12482.233000	12673.983556	12673.983556	12874.229389
579.743217	11383.672222	11383.672222	11423.721389	11577.850000	11577.850000	11645.812222
580.090909	10569.824611	10569.824611	10466.667667	10628.077944	10628.077944	10668.127111
580.438558	9727.335778	9727.335778	9692.141056	9684.859389	9684.859389	9783.161889
580.786162	8870.283611	8870.283611	8907.905556	8909.119167	8909.119167	9204.026667
581.133722	8089.446222	8089.446222	8088.232611	8321.245944	8321.245944	8332.168444
581.481238	7504.242944	7504.242944	7646.235444	7768.810167	7768.810167	7753.033222
581.828709	7133.848833	7133.848833	7041.614389	7272.200500	7272.200500	7306.181611
582.176136	6713.696667	6713.696667	6776.804444	6869.038889	6869.038889	7028.021944
582.523519	6320.972111	6320.972111	6354.953222	6544.276556	6544.276556	6538.208500
582.870857	6027.035500	6027.035500	6113.201889	6121.697167	6121.697167	6193.300222
583.218151	5666.107556	5666.107556	5822.663389	5900.334500	5900.334500	5953.733389
583.565400	5467.318056	5467.318056	5571.688611	5632.369167	5632.369167	5627.514722
583.912605	5397.414056	5397.414056	5313.674889	5459.308222	5459.308222	5489.648500
584.259766	5144.982944	5144.982944	5113.429056	5203.236278	5203.236278	5277.266556
584.606882	4798.132889	4798.132889	4920.707611	4954.688722	4954.688722	5084.545111
584.953954	4718.520000	4718.520000	4702.743056	4793.763889	4793.763889	4881.143889
585.300981	4623.372889	4623.372889	4589.391778	4636.722611	4636.722611	4708.325667
585.647964	4512.934278	4512.934278	4557.837889	4606.382333	4606.382333	4622.159278
585.994902	4325.310000	4325.310000	4367.786389	4468.516111	4468.516111	4474.584167
586.341796	4086.228611	4086.228611	4194.240000	4257.347778	4257.347778	4372.640833
586.688646	4160.258889	4160.258889	4186.958333	4196.667222	4196.667222	4322.882778
587.035450	3990.596056	3990.596056	4073.121611	4080.403278	4080.403278	4227.250222
587.382210	3847.147222	3847.147222	3849.574444	3909.041389	3909.041389	3858.069722
587.728926	3906.614167	3906.614167	3825.302222	3913.895833	3913.895833	3952.731389
588.075597	3770.932444	3770.932444	3712.679111	3670.202722	3670.202722	3843.749111
588.422223	3567.531222	3567.531222	3747.145667	3635.493444	3635.493444	3775.058722
588.768805	3654.425778	3654.425778	3622.871889	3700.543000	3700.543000	3745.446611
589.115342	3493.500944	3493.500944	3521.414000	3531.122889	3531.122889	3608.794000
589.461835	3288.400667	3288.400667	3430.393167	3440.102056	3440.102056	3563.890389
589.808282	3363.401833	3363.401833	3490.831000	3498.112667	3498.112667	3567.288500
590.154685	3351.993889	3351.993889	3330.148889	3322.867222	3322.867222	3446.655556
590.501044	3182.088333	3182.088333	3280.390833	3213.642222	3213.642222	3326.508056
590.847357	3136.213833	3136.213833	3145.922722	3207.816889	3207.816889	3183.544667
591.193626	3120.436889	3120.436889	3029.416056	3065.824389	3065.824389	3151.990778
591.539851	3051.261056	3051.261056	3251.506889	3165.340500	3165.340500	3201.748833
591.886030	3039.853111	3039.853111	3044.707556	3039.853111	3039.853111	3138.155611
592.232165	2876.986500	2876.986500	2912.181222	3009.270111	3009.270111	3071.164278
592.578255	2893.977056	2893.977056	2799.315389	2847.859833	2847.859833	2909.754000
592.924300	2769.217833	2769.217833	2959.754778	2982.813389	2982.813389	2914.851167
593.270300	2900.773278	2900.773278	2848.588000	2917.763833	2917.763833	2925.045500
593.616255	2812.422389	2812.422389	2825.772111	2808.781556	2808.781556	2864.607667
593.962166	2702.954667	2702.954667	2672.614389	2795.189111	2795.189111	2795.189111
594.308032	2653.682056	2653.682056	2673.099833	2687.663167	2687.663167	2823.587611
594.653852	2647.371278	2647.371278	2738.392111	2751.741833	2751.741833	2761.450722
594.999628	2661.206444	2661.206444	2607.807556	2578.680889	2578.680889	2664.847278
595.345359	2570.428333	2570.428333	2623.827222	2577.710000	2577.710000	2697.857500
595.691045	2523.825667	2523.825667	2517.757611	2578.438167	2578.438167	2675.527056
596.036686	2461.931500	2461.931500	2463.145111	2518.971222	2518.971222	2623.341778
596.382283	2417.998778	2417.998778	2460.475167	2540.573500	2540.573500	2561.204889
596.727834	2547.127000	2547.127000	2436.688389	2405.134500	2405.134500	2473.096722
597.073340	2429.164000	2429.164000	2389.114833	2466.785944	2466.785944	2467.999556
597.418801	2383.046778	2383.046778	2366.056222	2341.784000	2341.784000	2355.133722
597.764217	2319.696278	2319.696278	2311.201000	2462.902389	2462.902389	2408.289889
598.109589	2267.753722	2267.753722	2225.277333	2317.511778	2317.511778	2347.852056
598.454915	2164.111333	2164.111333	2255.132167	2259.986611	2259.986611	2290.326889
598.800196	2308.045611	2308.045611	2150.276167	2287.414222	2287.414222	2286.200611
599.145432	2253.918556	2253.918556	2216.296611	2241.782444	2241.782444	2247.850500
599.490623	2089.352889	2089.352889	2109.984278	2143.965389	2143.965389	2167.024000
599.835768	2137.169167	2137.169167	2145.664444	2154.159722	2154.159722	2207.558611
600.180869	1964.108222	1964.108222	2119.450444	2101.246278	2101.246278	2182.558222
600.525925	2066.051556	2066.051556	2086.682944	2091.537389	2091.537389	2186.199056
600.870935	2007.798222	2007.798222	2023.575167	2108.527944	2108.527944	2051.488222
601.215900	1970.176278	1970.176278	1998.089333	1970.176278	1970.176278	2029.643222
601.560820	1940.078722	1940.078722	1941.292333	2021.390667	2021.390667	2021.390667
601.905695	1993.720333	1993.720333	1994.933944	1967.020889	1967.020889	2056.828111
602.250525	1892.019722	1892.019722	1961.195556	1923.573611	1923.573611	1923.573611
602.595309	1862.650333	1862.650333	1865.077556	1869.932000	1869.932000	1909.981167
602.940048	1808.766000	1808.766000	1867.019333	1879.155444	1879.155444	1934.981556
603.284742	1809.494167	1809.494167	1899.301389	1941.777778	1941.777778	1929.641667
603.629390	1814.591333	1814.591333	1857.067722	1807.309667	1807.309667	1835.222722
603.973994	1819.931222	1819.931222	1781.095667	1864.834833	1864.834833	1863.621222
604.318552	1719.686944	1719.686944	1728.182222	1757.308889	1757.308889	1747.600000
604.663064	1712.648000	1712.648000	1689.589389	1632.549667	1632.549667	1681.094111
605.007532	1633.035111	1633.035111	1755.609833	1760.464278	1760.464278	1694.929278
605.351954	1746.629111	1746.629111	1722.356889	1810.950500	1810.950500	1813.377722
605.696330	1738.862000	1738.862000	1710.948944	1727.939500	1727.939500	1771.629500
606.040661	1594.685000	1594.685000	1564.344722	1611.675556	1611.675556	1598.325833
606.384947	1583.034333	1583.034333	1580.607111	1593.956833	1593.956833	1592.743222
606.729188	1622.112611	1622.112611	1614.830944	1668.229833	1668.229833	1622.112611
607.073383	1578.179889	1578.179889	1657.064611	1591.529611	1591.529611	1641.287667
607.417532	1537.645278	1537.645278	1497.596111	1532.790833	1532.790833	1535.218056
607.761636	1508.518611	1508.518611	1514.586667	1542.499722	1542.499722	1518.227500
608.105695	1464.100444	1464.100444	1557.548500	1501.722389	1501.722389	1539.344333
608.449708	1459.731444	1459.731444	1530.120889	1621.141722	1621.141722	1594.442278
608.793676	1427.206667	1427.206667	1466.042222	1503.664167	1503.664167	1493.955278
609.137598	1449.051667	1449.051667	1432.061111	1400.507222	1400.507222	1476.964722
609.481474	1428.177556	1428.177556	1445.168111	1445.168111	1445.168111	1373.565056
609.825305	1463.129556	1463.129556	1443.711778	1499.537889	1499.537889	1417.012333
610.169091	1409.245222	1409.245222	1399.536333	1387.400222	1387.400222	1495.411611
610.512831	1375.264111	1375.264111	1383.759389	1355.846333	1355.846333	1429.876611
610.856525	1425.022167	1425.022167	1360.700778	1380.118556	1380.118556	1467.498556
611.200174	1378.176778	1378.176778	1427.934833	1389.099278	1389.099278	1427.934833
611.543777	1398.080000	1398.080000	1393.225556	1343.467500	1343.467500	1475.751111
611.887334	1373.807778	1373.807778	1349.535556	1351.962778	1351.962778	1400.507222
612.230846	1285.942333	1285.942333	1204.630389	1302.932889	1302.932889	1332.059556
612.574312	1251.475778	1251.475778	1352.205500	1295.165778	1295.165778	1285.456889
612.917733	1333.515889	1333.515889	1354.147278	1292.253111	1292.253111	1345.652000
613.261107	1181.571778	1181.571778	1173.076500	1197.348722	1197.348722	1187.639833
613.604436	1206.814889	1206.814889	1178.901833	1129.143778	1129.143778	1182.542667
613.947720	1172.105611	1172.105611	1214.582000	1243.708667	1243.708667	1206.086722
614.290957	1335.943111	1335.943111	1220.650056	1246.135889	1246.135889	1294.680333
614.634149	1134.240944	1134.240944	1180.358167	1162.154000	1162.154000	1162.154000
614.977295	1127.202000	1127.202000	1158.755889	1232.786167	1232.786167	1166.037556
615.320395	1263.126444	1263.126444	1230.358944	1191.523389	1191.523389	1206.086722
615.663450	1099.531667	1099.531667	1199.047778	1111.667778	1111.667778	1216.038333
616.006458	1220.164611	1220.164611	1195.892389	1214.096556	1214.096556	1193.465167
616.349421	1197.348722	1197.348722	1126.959278	1133.027333	1133.027333	1211.912056
616.692338	1174.047389	1174.047389	1198.319611	1164.338500	1164.338500	1136.425444
617.035209	1058.268889	1058.268889	1071.618611	1058.268889	1058.268889	1111.667778
617.378034	1021.132389	1021.132389	984.724056	1086.667389	1086.667389	1101.230722
617.720813	1086.181944	1086.181944	1066.764167	1015.792500	1015.792500	1026.715000
618.063546	1122.833000	1122.833000	1080.356611	1141.037167	1141.037167	1075.502167
618.406234	1012.151667	1012.151667	1064.336944	1066.764167	1066.764167	1036.423889
618.748875	1005.112722	1005.112722	1102.201611	1067.006889	1067.006889	1075.502167
619.091471	1000.743722	1000.743722	1067.492333	1091.764556	1091.764556	1094.191778
619.434020	999.772833	999.772833	987.636722	1065.307833	1065.307833	1050.744500
619.776524	942.004944	942.004944	923.800778	955.354667	955.354667	997.831056
620.118982	922.829889	922.829889	966.519889	1004.141833	1004.141833	1019.918778
620.461393	981.325944	981.325944	925.499833	955.840111	955.840111	974.044278
620.803759	923.800778	923.800778	962.636333	922.587167	922.587167	1006.326333
621.146078	920.159944	920.159944	982.054111	943.218556	943.218556	1013.608000
621.488351	842.488833	842.488833	921.373556	861.906611	861.906611	974.772444
621.830579	903.897556	903.897556	857.780333	873.557278	873.557278	1000.986444
622.172760	901.227611	901.227611	901.227611	936.422333	936.422333	913.363722
622.514895	941.519500	941.519500	848.071444	874.770889	874.770889	880.838944
622.856984	860.207556	860.207556	891.761444	905.111167	905.111167	952.442000
623.199027	963.607222	963.607222	865.304722	924.771667	924.771667	1001.229167
623.541024	810.449500	810.449500	823.799222	866.275611	866.275611	862.634778
623.882974	929.626111	929.626111	873.800000	938.121389	938.121389	913.849167
624.224878	840.789778	840.789778	903.897556	849.285056	849.285056	939.092278
624.566737	744.186333	744.186333	773.313000	713.846056	713.846056	795.158000
624.908549	774.283889	774.283889	804.624167	792.488056	792.488056	769.429444
625.250314	824.041944	824.041944	844.673333	827.682778	827.682778	803.410556
625.592034	711.418833	711.418833	770.885778	772.099389	772.099389	725.982167
625.933707	768.944000	768.944000	762.875944	778.652889	778.652889	783.507333
626.275334	768.701278	768.701278	769.914889	760.206000	760.206000	834.236278
626.616914	698.311833	698.311833	751.710722	676.466833	676.466833	698.311833
626.958449	755.108833	755.108833	786.662722	814.575778	814.575778	783.021889
627.299937	743.700889	743.700889	715.787833	692.729222	692.729222	803.167833
627.641378	766.759500	766.759500	720.642278	718.215056	718.215056	765.545889
627.982774	672.097833	672.097833	700.010889	684.233944	684.233944	664.816167
628.324123	685.447556	685.447556	743.700889	687.874778	687.874778	735.205611
628.665425	656.806333	656.806333	687.146611	668.942444	668.942444	704.137167
629.006681	664.088000	664.088000	666.515222	627.679667	627.679667	649.524667
629.347891	674.039611	674.039611	716.516000	695.884611	695.884611	677.680444
629.689055	594.426722	594.426722	630.835056	686.661167	686.661167	659.961722
630.030171	586.174167	586.174167	605.591944	686.903889	686.903889	684.476667
630.371242	617.970778	617.970778	557.290222	643.456611	643.456611	634.961333
630.712266	665.544333	665.544333	602.436556	569.669056	569.669056	735.933778
631.053243	645.155667	645.155667	563.843722	617.242611	617.242611	675.495944
631.394174	645.398389	645.398389	577.436167	619.912556	619.912556	652.680056
631.735059	588.844111	588.844111	591.271333	653.165500	653.165500	602.193833
632.075897	629.378722	629.378722	582.047889	663.359833	663.359833	556.562056
632.416688	559.717444	559.717444	541.513278	565.785500	565.785500	585.203278
632.757433	545.396833	545.396833	545.396833	602.436556	602.436556	545.396833
633.098131	521.124611	521.124611	518.697389	557.532944	557.532944	553.892111
633.438783	552.193056	552.193056	611.660000	570.397222	570.397222	572.824444
633.779388	571.610833	571.610833	515.784722	564.329167	564.329167	603.164722
634.119946	555.105722	555.105722	534.474333	575.737111	575.737111	552.678500
634.460458	541.756000	541.756000	667.971556	629.136000	629.136000	623.067944
634.800923	512.143889	512.143889	506.075833	510.930278	510.930278	514.571111
635.141342	471.609278	471.609278	518.940111	488.599833	488.599833	499.522333
635.481713	542.241444	542.241444	488.842556	517.969222	517.969222	504.619500
635.822038	518.697389	518.697389	513.842944	481.075444	481.075444	476.221000
636.162317	498.551444	498.551444	538.600611	475.492833	475.492833	476.706444
636.502548	467.725722	467.725722	502.920444	439.812667	439.812667	504.134056
636.842733	545.396833	545.396833	541.756000	517.483778	517.483778	517.483778
637.182871	426.705667	426.705667	489.813444	495.881500	495.881500	487.386222
637.522963	421.851222	421.851222	512.872056	448.550667	448.550667	526.221778
637.863007	424.521167	424.521167	416.025889	395.394500	395.394500	477.920056
638.203005	433.501889	433.501889	448.065222	458.987722	458.987722	474.764667
638.542956	402.190722	402.190722	428.890167	500.493222	500.493222	426.462944
638.882860	508.260333	508.260333	466.997556	448.793389	448.793389	417.239500
639.222717	483.988111	483.988111	388.112833	429.375611	429.375611	417.239500
639.562528	471.123833	471.123833	499.036889	465.055778	465.055778	460.201333
639.902291	423.793000	423.793000	437.142722	432.288278	432.288278	452.919667
640.242008	365.539667	365.539667	437.142722	382.530222	382.530222	408.016056
640.581677	414.326833	414.326833	385.200167	360.927944	360.927944	371.850444
640.921300	373.064056	373.064056	314.810722	326.946833	326.946833	371.850444
641.260876	393.695444	393.695444	400.977111	376.704889	376.704889	425.249333
641.600405	417.239500	417.239500	430.589222	436.657278	436.657278	406.317000
641.939887	384.229278	384.229278	407.287889	424.278444	424.278444	436.414556
642.279322	378.646667	378.646667	387.141944	343.451944	343.451944	315.538889
642.618710	319.907889	319.907889	346.607333	403.647056	403.647056	350.248167
642.958050	314.568000	314.568000	283.014111	331.558556	331.558556	316.995222
643.297344	388.841000	388.841000	305.101833	307.529056	307.529056	366.996000
643.636591	360.685222	360.685222	313.354389	391.025500	391.025500	330.344944
643.975791	430.346500	430.346500	384.229278	375.734000	375.734000	361.170667
644.314944	376.219444	376.219444	353.160833	405.346111	405.346111	390.782778
644.654049	388.355556	388.355556	377.433056	401.705278	401.705278	430.831944
644.993108	356.558944	356.558944	348.063667	335.927556	335.927556	335.927556
645.332119	291.994833	291.994833	342.966500	396.365389	396.365389	334.471222
645.671083	354.131722	354.131722	309.228111	312.868944	312.868944	311.655333
646.010000	342.966500	342.966500	359.957056	345.393722	345.393722	345.393722
646.348870	292.237556	292.237556	367.481444	272.819778	272.819778	297.092000
646.687693	367.238722	367.238722	359.957056	403.647056	403.647056	401.219833
647.026468	265.052667	265.052667	286.897667	248.062111	248.062111	269.907111
647.365197	276.946056	276.946056	292.723000	342.481056	342.481056	275.732444
647.703878	321.606944	321.606944	270.635278	322.820556	322.820556	332.529444
648.042511	301.703722	301.703722	244.664000	265.295389	265.295389	317.480667
648.381098	345.636444	345.636444	291.023944	280.101444	280.101444	331.073111
648.719637	335.684833	335.684833	335.684833	298.062889	298.062889	333.257611
649.058129	242.236778	242.236778	285.926778	198.546778	198.546778	232.527889
649.396574	255.343778	255.343778	266.266278	277.188778	277.188778	244.421278
649.734971	318.208833	318.208833	280.586889	269.664389	269.664389	332.772167
650.073321	233.013333	233.013333	231.799722	250.003889	250.003889	245.149444
650.411624	279.373278	279.373278	263.596333	261.169111	261.169111	171.361889
650.749879	286.654944	286.654944	267.237167	229.615222	229.615222	178.643556
651.088087	226.217111	226.217111	261.411833	223.789889	223.789889	336.655722
651.426248	254.615611	254.615611	323.791444	219.420889	219.420889	224.275333
651.764361	217.721833	217.721833	237.139611	277.188778	277.188778	170.391000
652.102427	304.130944	304.130944	276.217889	298.062889	298.062889	268.936222
652.440445	254.615611	254.615611	227.916167	276.460611	276.460611	272.819778
652.778416	289.567611	289.567611	261.654556	304.130944	304.130944	345.393722
653.116339	275.489722	275.489722	254.858333	243.935833	243.935833	208.741111
653.454215	276.946056	276.946056	240.537722	269.664389	269.664389	280.586889
653.792043	234.955111	234.955111	244.664000	216.750944	216.750944	233.741500
654.129824	222.090833	222.090833	236.654167	209.954722	209.954722	250.003889
654.467557	273.790667	273.790667	261.654556	285.926778	285.926778	260.440944
654.805243	236.168722	236.168722	222.819000	221.605389	221.605389	242.236778
655.142881	319.179722	319.179722	271.848889	297.334722	297.334722	277.916944
655.480472	250.974778	250.974778	247.333944	243.693111	243.693111	289.810333
655.818015	237.625056	237.625056	224.275333	248.547556	248.547556	232.770611
656.155510	272.819778	272.819778	253.402000	255.829222	255.829222	282.528667
656.492958	248.547556	248.547556	204.857556	172.090056	172.090056	238.838667
656.830358	214.809167	214.809167	201.459444	122.574722	122.574722	175.973611
657.167711	224.760778	224.760778	175.002722	162.866611	162.866611	196.847722
657.505015	222.576278	222.576278	246.848500	249.275722	249.275722	260.198222
657.842273	239.809556	239.809556	232.527889	203.401222	203.401222	208.255667
658.179482	233.984222	233.984222	263.110889	286.169500	286.169500	281.315056
658.516644	205.585722	205.585722	194.663222	100.001556	100.001556	172.818222
658.853758	196.605000	196.605000	191.750556	229.372500	229.372500	240.295000
659.190824	165.051111	165.051111	208.741111	194.177778	194.177778	128.642778
659.527842	119.904778	119.904778	164.808389	236.411444	236.411444	136.895333
659.864813	186.410667	186.410667	237.382333	180.342611	180.342611	203.401222
660.201736	213.352833	213.352833	206.071167	230.343389	230.343389	213.352833
660.538611	238.838667	238.838667	197.575889	237.625056	237.625056	220.634500
660.875438	259.955500	259.955500	216.265500	201.702167	201.702167	195.634111
661.212218	146.361500	146.361500	166.992889	142.720667	142.720667	200.974000
661.548950	190.294222	190.294222	142.963389	174.517278	174.517278	219.420889
661.885633	233.741500	233.741500	182.769833	221.605389	221.605389	220.391778
662.222269	211.168333	211.168333	214.809167	234.226944	234.226944	180.828056
662.558857	167.478333	167.478333	254.858333	216.022778	216.022778	143.206111
662.895397	372.335889	372.335889	339.568389	358.986167	358.986167	356.558944
663.231889	138.108944	138.108944	167.235611	158.740333	158.740333	138.108944
663.568334	145.633333	145.633333	154.128611	139.565278	139.565278	78.884722
663.904730	180.585333	180.585333	233.984222	258.256444	258.256444	223.061722
664.241078	168.934667	168.934667	194.420500	219.906333	219.906333	219.906333
664.577378	164.565667	164.565667	154.856778	181.556222	181.556222	210.682889
664.913631	176.701778	176.701778	196.119556	171.847333	171.847333	192.478722
665.249835	146.604222	146.604222	124.759222	127.186444	127.186444	183.012556
665.585991	253.644722	253.644722	178.400833	145.633333	145.633333	158.983056
665.922099	187.138833	187.138833	172.575500	138.594389	138.594389	177.429944
666.258159	155.584944	155.584944	132.526333	193.206889	193.206889	128.885500
666.594171	157.769444	157.769444	208.741111	151.701389	151.701389	172.332778
666.930135	162.623889	162.623889	134.710833	149.274167	149.274167	140.778889
667.266051	208.741111	208.741111	197.818611	246.363056	246.363056	166.264722
667.601919	196.605000	196.605000	188.109722	205.100278	205.100278	129.856389
667.937738	226.945278	226.945278	205.100278	154.128611	154.128611	183.255278
668.273510	256.800111	256.800111	136.652611	205.828444	205.828444	156.070389
668.609233	420.394889	420.394889	436.171833	464.084889	464.084889	432.531000
668.944908	210.682889	210.682889	190.051500	217.964556	217.964556	226.459833
669.280535	148.060556	148.060556	80.098333	194.177778	194.177778	100.729722
669.616114	133.739944	133.739944	102.186056	124.031056	124.031056	147.089667
669.951644	209.226556	209.226556	214.081000	186.167944	186.167944	199.517667
670.287126	75.486611	75.486611	136.167167	172.575500	172.575500	113.108556
670.622560	159.468500	159.468500	181.313500	184.954333	184.954333	174.031833
670.957946	59.952389	59.952389	166.750167	129.128222	129.128222	184.954333
671.293283	105.584167	105.584167	150.487778	127.429167	127.429167	126.215556
671.628572	155.584944	155.584944	195.634111	216.265500	216.265500	156.798556
671.963813	161.895722	161.895722	159.468500	158.254889	158.254889	123.060167
672.299006	135.439000	135.439000	185.197056	190.051500	190.051500	186.410667
672.634150	117.720278	117.720278	144.419722	183.255278	183.255278	183.255278
672.969245	161.895722	161.895722	121.846556	161.895722	161.895722	124.273778
673.304293	95.875278	95.875278	134.710833	151.701389	151.701389	120.147500
673.639291	122.089278	122.089278	77.185667	136.652611	136.652611	125.730111
673.974242	137.623500	137.623500	109.710444	186.167944	186.167944	125.487389
674.309144	80.583778	80.583778	89.079056	80.583778	80.583778	147.332389
674.643998	187.867000	187.867000	172.090056	156.313111	156.313111	185.439778
674.978803	171.847333	171.847333	137.866222	131.798167	131.798167	122.089278
675.313560	140.536167	140.536167	122.332000	168.449222	168.449222	123.545611
675.648268	124.516500	124.516500	94.176222	134.225389	134.225389	102.671500
675.982928	98.787944	98.787944	112.137667	126.701000	126.701000	177.672667
676.317539	108.739556	108.739556	109.953167	128.157333	128.157333	123.302889
676.652101	114.564889	114.564889	152.186833	132.769056	132.769056	75.729333
676.986615	91.020833	91.020833	100.729722	92.234444	92.234444	53.398889
677.321081	128.157333	128.157333	74.758444	77.185667	77.185667	101.457889
677.655498	125.001944	125.001944	180.828056	111.652222	111.652222	134.710833
677.989866	85.438222	85.438222	46.602667	115.778500	115.778500	100.001556
678.324186	115.778500	115.778500	136.409889	114.564889	114.564889	158.254889
678.658457	147.089667	147.089667	151.944111	160.439389	160.439389	128.885500
678.992680	73.544833	73.544833	152.429556	63.835944	63.835944	108.739556
679.326854	145.876056	145.876056	109.467722	121.603833	121.603833	107.040500
679.660979	71.845778	71.845778	90.049944	109.467722	109.467722	85.195500
679.995055	90.778111	90.778111	105.341444	127.186444	127.186444	68.933111
680.329083	107.283222	107.283222	109.710444	166.750167	166.750167	164.322944
680.663062	170.391000	170.391000	200.731278	115.778500	115.778500	188.595167
680.996993	74.273000	74.273000	126.458278	47.573556	47.573556	105.826889
681.330874	110.195889	110.195889	167.235611	122.332000	122.332000	176.944500
681.664707	49.515333	49.515333	111.409500	87.137278	87.137278	88.350889
681.998491	105.826889	105.826889	75.486611	98.545222	98.545222	97.331611
682.332227	68.204944	68.204944	62.136889	59.709667	59.709667	57.282444
682.665913	69.418556	69.418556	167.721056	131.312722	131.312722	127.671889
682.999551	45.874500	45.874500	72.573944	79.855611	79.855611	8.252556
683.333140	77.185667	77.185667	80.826500	75.972056	75.972056	82.040111
683.666680	132.526333	132.526333	80.341056	133.739944	133.739944	136.167167
684.000171	88.836333	88.836333	69.418556	64.564111	64.564111	57.282444
684.333613	139.565278	139.565278	89.807222	89.807222	89.807222	114.079444
684.667006	112.623111	112.623111	142.963389	159.953944	159.953944	96.846167
685.000351	123.060167	123.060167	101.215167	96.360722	96.360722	103.642389
685.333646	72.816667	72.816667	78.884722	89.807222	89.807222	128.642778
685.666893	99.516111	99.516111	125.001944	59.466944	59.466944	89.807222
686.000091	83.253722	83.253722	91.749000	96.603444	96.603444	91.749000
686.333239	108.982278	108.982278	118.691167	108.982278	108.982278	127.186444
686.666339	62.622333	62.622333	117.234833	116.021222	116.021222	77.185667
686.999390	48.059000	48.059000	85.680944	90.535389	90.535389	71.117611
687.332391	120.875667	120.875667	50.486222	75.972056	75.972056	103.885111
687.665344	113.594000	113.594000	112.380389	141.507056	141.507056	111.166778
687.998247	99.516111	99.516111	0.000000	18.204167	18.204167	52.185278
688.331102	55.340667	55.340667	69.904000	124.516500	124.516500	56.554278
688.663907	108.496833	108.496833	61.166000	79.370167	79.370167	68.447667
688.996664	25.000389	25.000389	48.059000	89.321778	89.321778	77.185667
689.329371	108.254111	108.254111	64.564111	87.622722	87.622722	56.068833
689.662029	112.380389	112.380389	162.138444	118.448444	118.448444	114.807611
689.994638	147.332389	147.332389	129.128222	121.846556	121.846556	161.895722
690.327198	66.505889	66.505889	140.536167	95.632556	95.632556	39.806444
690.659708	110.195889	110.195889	115.050333	117.477556	117.477556	104.127833
690.992170	37.136500	37.136500	99.030667	0.728167	0.728167	26.214000
691.324582	123.060167	123.060167	146.118778	177.672667	177.672667	153.400444
691.656945	42.719111	42.719111	3.883556	34.223833	34.223833	25.728556
691.989259	59.224222	59.224222	70.146722	82.282833	82.282833	59.224222
692.321524	79.855611	79.855611	94.418944	101.700611	101.700611	38.592833
692.653739	101.457889	101.457889	40.777333	106.312333	106.312333	91.749000
692.985905	36.651056	36.651056	37.864667	39.078278	39.078278	30.583000
693.318022	115.293056	115.293056	86.166389	117.720278	117.720278	131.070000
693.650089	60.923278	60.923278	41.505500	34.223833	34.223833	57.282444
693.982107	68.933111	68.933111	54.369778	8.252556	8.252556	78.642000
694.314076	123.788333	123.788333	126.215556	69.175833	69.175833	108.011389
694.645996	100.244278	100.244278	103.885111	108.739556	108.739556	123.302889
694.977866	136.652611	136.652611	126.943722	114.807611	114.807611	79.612889
695.309686	104.370556	104.370556	74.030278	98.302500	98.302500	70.389444
695.641458	83.981889	83.981889	56.068833	109.467722	109.467722	43.932722
695.973180	92.719889	92.719889	137.623500	67.234056	67.234056	121.846556
696.304852	70.146722	70.146722	41.020056	82.282833	82.282833	58.010611
696.636475	120.632944	120.632944	169.177389	90.292667	90.292667	102.428778
696.968049	24.514944	24.514944	31.796611	82.768278	82.768278	71.845778
697.299573	49.272611	49.272611	65.049556	105.098722	105.098722	89.321778
697.631047	78.399278	78.399278	117.234833	120.875667	120.875667	63.835944
697.962472	39.321000	39.321000	102.428778	95.147111	95.147111	42.961833
698.293848	26.456722	26.456722	17.961444	21.602278	21.602278	79.855611
698.625174	103.642389	103.642389	61.166000	76.942944	76.942944	127.914611
698.956451	33.738389	33.738389	-18.446889	62.865056	62.865056	47.088111
699.287678	51.699833	51.699833	28.641222	56.554278	56.554278	45.631778
699.618855	77.185667	77.185667	40.777333	60.195111	60.195111	58.981500
699.949983	65.049556	65.049556	49.272611	90.535389	90.535389	51.699833
700.281061	45.146333	45.146333	113.108556	105.826889	105.826889	83.981889
700.612089	41.262778	41.262778	53.398889	44.903611	44.903611	60.680556
700.943068	32.524778	32.524778	115.050333	37.379222	37.379222	54.369778
701.273998	-14.563333	-14.563333	6.068056	38.835556	38.835556	16.990556
701.604877	65.049556	65.049556	54.127056	-2.912667	-2.912667	44.418167
701.935707	120.390222	120.390222	122.817444	63.350500	63.350500	125.244667
702.266487	90.535389	90.535389	124.516500	119.662056	119.662056	85.680944
702.597218	70.389444	70.389444	78.884722	115.293056	115.293056	98.302500
702.927899	127.671889	127.671889	110.681333	113.108556	113.108556	114.322167
703.258530	98.302500	98.302500	77.671111	91.020833	91.020833	63.107778
703.589111	42.233667	42.233667	75.001167	85.923667	85.923667	77.428389
703.919642	43.932722	43.932722	63.350500	51.214389	51.214389	65.777722
704.250124	35.437444	35.437444	36.651056	23.301333	23.301333	25.728556
704.580556	72.573944	72.573944	77.428389	72.573944	72.573944	33.738389
704.910938	51.457111	51.457111	5.339889	66.020444	66.020444	0.485444
705.241270	87.380000	87.380000	92.234444	57.039722	57.039722	53.398889
705.571553	162.381167	162.381167	136.895333	78.642000	78.642000	85.923667
705.901785	-13.349722	-13.349722	31.553889	82.525556	82.525556	-15.776944
706.231968	20.631389	20.631389	54.612500	16.990556	16.990556	37.621944
706.562101	-15.776944	-15.776944	-19.417778	-1.213611	-1.213611	43.690000
706.892184	24.272222	24.272222	69.175833	95.875278	95.875278	69.175833
707.222216	52.913444	52.913444	46.845389	60.195111	60.195111	48.059000
707.552199	94.904389	94.904389	139.808000	131.312722	131.312722	93.690778
707.882132	49.515333	49.515333	16.747833	43.447278	43.447278	73.787556
708.212016	82.525556	82.525556	67.962222	38.835556	38.835556	103.156944
708.541849	49.272611	49.272611	71.117611	106.312333	106.312333	44.418167
708.871632	66.263167	66.263167	77.185667	100.244278	100.244278	73.544833
709.201365	27.670333	27.670333	84.710056	48.301722	48.301722	17.961444
709.531048	82.040111	82.040111	15.291500	28.641222	28.641222	38.350111
709.860681	81.554667	81.554667	50.000778	108.254111	108.254111	71.845778
710.190264	102.671500	102.671500	80.826500	88.108167	88.108167	86.894556
710.519796	136.167167	136.167167	137.380778	150.730500	150.730500	147.089667
710.849279	55.826111	55.826111	83.739167	54.612500	54.612500	36.408333
711.178712	52.913444	52.913444	101.457889	128.157333	128.157333	40.777333
711.508094	25.728556	25.728556	25.728556	3.883556	3.883556	23.301333
711.837427	3.640833	3.640833	13.349722	54.612500	54.612500	6.068056
712.166709	113.351278	113.351278	68.447667	123.060167	123.060167	123.060167
712.495941	63.350500	63.350500	65.777722	23.301333	23.301333	64.564111
712.825123	106.797778	106.797778	40.049167	30.340278	30.340278	27.913056
713.154255	99.758833	99.758833	90.049944	103.399667	103.399667	88.836333
713.483336	112.380389	112.380389	88.108167	66.263167	66.263167	84.467333
713.812367	28.155778	28.155778	43.932722	87.622722	87.622722	86.409111
714.141348	72.088500	72.088500	52.670722	55.097944	55.097944	81.797389
714.470279	104.613278	104.613278	156.798556	120.390222	120.390222	156.798556
714.799159	33.981111	33.981111	3.640833	32.767500	32.767500	40.049167
715.127990	-8.252556	-8.252556	57.282444	-2.184500	-2.184500	65.777722
715.456769	66.263167	66.263167	16.505111	12.864278	12.864278	65.049556
715.785499	97.088889	97.088889	82.525556	92.234444	92.234444	74.030278
716.114178	74.758444	74.758444	14.077889	8.009833	8.009833	44.418167
716.442807	62.136889	62.136889	70.632167	35.437444	35.437444	19.660500
716.771385	123.060167	123.060167	106.069611	76.942944	76.942944	30.825722
717.099914	40.291889	40.291889	14.806056	41.505500	41.505500	33.010222
717.428391	116.749389	116.749389	50.000778	57.282444	57.282444	100.972444
717.756819	89.564500	89.564500	58.010611	49.515333	49.515333	27.670333
718.085195	47.088111	47.088111	32.524778	-25.728556	-25.728556	10.679778
718.413522	89.807222	89.807222	50.971667	87.380000	87.380000	125.001944
718.741798	40.291889	40.291889	45.146333	17.233278	17.233278	37.864667
719.070023	52.428000	52.428000	147.089667	9.951611	9.951611	107.040500
719.398198	56.797000	56.797000	111.409500	93.205333	93.205333	72.573944
719.726323	83.011000	83.011000	70.874889	22.330444	22.330444	21.116833
720.054397	82.282833	82.282833	121.118389	153.885889	153.885889	64.078667
720.382420	88.350889	88.350889	127.186444	82.282833	82.282833	82.282833
720.710393	112.623111	112.623111	94.418944	96.846167	96.846167	112.623111
721.038316	0.242722	0.242722	51.214389	23.301333	23.301333	51.214389
721.366188	21.116833	21.116833	36.893778	0.485444	0.485444	51.457111
721.694009	6.310778	6.310778	37.864667	-4.611722	-4.611722	39.078278
722.021779	19.417778	19.417778	52.185278	60.680556	60.680556	21.845000
722.349499	120.147500	120.147500	92.234444	36.408333	36.408333	54.612500
722.677169	19.660500	19.660500	40.291889	128.885500	128.885500	60.923278
723.004787	41.020056	41.020056	68.933111	49.515333	49.515333	14.320611
723.332355	6.796222	6.796222	57.767889	46.845389	46.845389	92.962611
723.659873	59.466944	59.466944	30.340278	24.272222	24.272222	36.408333
723.987339	64.078667	64.078667	53.156167	36.165611	36.165611	8.252556
724.314755	-13.592444	-13.592444	72.573944	33.738389	33.738389	41.020056
724.642120	75.001167	75.001167	58.010611	102.914222	102.914222	78.642000
724.969435	58.010611	58.010611	68.933111	83.496444	83.496444	39.806444
725.296699	5.825333	5.825333	16.747833	30.097556	30.097556	50.728944
725.623911	103.642389	103.642389	81.797389	98.787944	98.787944	159.468500
725.951074	54.127056	54.127056	8.009833	18.932333	18.932333	-15.048778
726.278185	49.515333	49.515333	38.592833	17.961444	17.961444	76.214778
726.605245	129.613667	129.613667	41.020056	26.456722	26.456722	91.991722
726.932255	47.088111	47.088111	106.555056	83.496444	83.496444	76.214778
727.259214	42.476389	42.476389	59.466944	70.389444	70.389444	20.631389
727.586122	39.806444	39.806444	45.874500	65.292278	65.292278	17.961444
727.912979	8.738000	8.738000	17.233278	-32.524778	-32.524778	29.369389
728.239785	127.671889	127.671889	142.235222	53.641611	53.641611	102.186056
728.566540	17.233278	17.233278	11.165222	1.456333	1.456333	29.369389
728.893245	4.126278	4.126278	8.980722	38.107389	38.107389	84.224611
729.219898	65.292278	65.292278	61.651444	33.738389	33.738389	70.146722
729.546501	43.447278	43.447278	47.088111	27.670333	27.670333	41.020056
729.873052	-6.553500	-6.553500	15.291500	56.554278	56.554278	27.427611
730.199552	147.332389	147.332389	118.205722	112.137667	112.137667	149.759611
730.526002	66.748611	66.748611	3.640833	84.952778	84.952778	63.107778
730.852400	78.399278	78.399278	71.117611	85.680944	85.680944	16.505111
731.178748	53.398889	53.398889	59.466944	83.739167	83.739167	87.380000
731.505044	36.408333	36.408333	61.894167	-9.708889	-9.708889	24.272222
731.831290	41.262778	41.262778	1.213611	3.640833	3.640833	31.553889
732.157484	62.136889	62.136889	70.632167	76.700222	76.700222	63.350500
732.483627	17.961444	17.961444	31.311167	50.728944	50.728944	5.825333
732.809719	29.854833	29.854833	32.282056	56.554278	56.554278	10.437056
733.135760	46.845389	46.845389	60.195111	45.631778	45.631778	109.953167
733.461750	33.495667	33.495667	55.340667	61.408722	61.408722	51.699833
733.787688	47.088111	47.088111	70.146722	37.379222	37.379222	33.738389
734.113576	24.514944	24.514944	58.496056	37.864667	37.864667	5.097167
734.439412	79.612889	79.612889	109.953167	89.321778	89.321778	28.641222
734.765197	76.214778	76.214778	84.710056	79.855611	79.855611	26.456722
735.090931	101.457889	101.457889	21.359556	63.835944	63.835944	91.749000
735.416614	-33.738389	-33.738389	25.728556	6.310778	6.310778	23.301333
735.742245	106.069611	106.069611	83.011000	39.321000	39.321000	61.166000
736.067825	121.118389	121.118389	117.477556	125.972833	125.972833	152.672278
736.393354	98.545222	98.545222	93.690778	75.486611	75.486611	108.254111
736.718832	127.186444	127.186444	98.059778	116.263944	116.263944	106.555056
737.044258	38.107389	38.107389	30.825722	33.252944	33.252944	16.262389
737.369633	-53.641611	-53.641611	-26.942167	54.369778	54.369778	-33.010222
737.694957	25.971278	25.971278	6.553500	25.971278	25.971278	-4.369000
738.020229	34.952000	34.952000	-3.883556	20.388667	20.388667	67.719500
738.345450	147.332389	147.332389	92.719889	39.321000	39.321000	13.835167
738.670619	65.049556	65.049556	20.145944	-7.767111	-7.767111	100.244278
738.995738	79.855611	79.855611	27.670333	82.282833	82.282833	51.942556
739.320804	94.418944	94.418944	101.700611	106.555056	106.555056	134.468111
739.645820	18.446889	18.446889	-16.747833	23.301333	23.301333	11.165222
739.970784	63.107778	63.107778	92.234444	48.544444	48.544444	32.767500
740.295696	44.418167	44.418167	15.291500	6.796222	6.796222	37.136500
740.620557	61.894167	61.894167	35.194722	67.962222	67.962222	67.962222
740.945366	25.728556	25.728556	56.068833	65.777722	65.777722	144.662444
741.270124	65.777722	65.777722	109.467722	102.186056	102.186056	86.409111
741.594831	44.418167	44.418167	79.612889	67.476778	67.476778	84.467333
741.919486	47.573556	47.573556	12.378833	35.437444	35.437444	16.019667
742.244089	88.836333	88.836333	1.456333	7.524389	7.524389	-9.466167
742.568641	46.845389	46.845389	55.340667	68.690389	68.690389	82.040111
742.893141	83.739167	83.739167	29.126667	59.466944	59.466944	80.098333
743.217590	108.496833	108.496833	92.719889	143.691556	143.691556	114.564889
743.541987	66.020444	66.020444	108.496833	141.264333	141.264333	79.370167
743.866332	86.166389	86.166389	47.330833	59.466944	59.466944	8.495278
744.190626	63.835944	63.835944	54.127056	111.166778	111.166778	85.680944
744.514868	57.039722	57.039722	24.272222	111.652222	111.652222	94.661667
744.839058	3.883556	3.883556	46.359944	56.068833	56.068833	86.409111
745.163197	42.961833	42.961833	61.166000	40.534611	40.534611	53.884333
745.487284	238.110500	238.110500	255.101056	272.091611	272.091611	255.101056
745.811320	42.961833	42.961833	66.020444	38.107389	38.107389	27.184889
746.135303	76.700222	76.700222	104.613278	99.758833	99.758833	59.709667
746.459235	39.321000	39.321000	91.506278	91.506278	91.506278	113.351278
746.783115	39.078278	39.078278	102.186056	37.864667	37.864667	50.000778
747.106944	5.825333	5.825333	45.874500	61.651444	61.651444	13.107000
747.430720	14.320611	14.320611	11.893389	31.311167	31.311167	-6.310778
747.754445	19.660500	19.660500	-2.184500	-44.660889	-44.660889	53.641611
748.078118	83.981889	83.981889	83.981889	45.146333	45.146333	136.167167
748.401739	26.699444	26.699444	14.563333	-9.708889	-9.708889	38.835556
748.725308	65.777722	65.777722	54.855222	50.000778	50.000778	71.845778
749.048825	49.272611	49.272611	57.767889	28.641222	28.641222	50.486222
749.372291	30.825722	30.825722	40.534611	6.553500	6.553500	53.884333
749.695705	71.117611	71.117611	39.563722	69.904000	69.904000	29.854833
750.019066	-26.942167	-26.942167	-30.583000	3.398111	3.398111	21.602278
750.342376	35.680167	35.680167	2.912667	29.612111	29.612111	-60.195111
750.665634	91.020833	91.020833	31.553889	42.476389	42.476389	72.816667
750.988840	54.127056	54.127056	54.127056	50.486222	50.486222	43.204556
751.311994	70.389444	70.389444	33.981111	61.894167	61.894167	38.835556
751.635096	51.457111	51.457111	25.971278	53.884333	53.884333	16.262389
751.958146	10.679778	10.679778	-3.883556	-13.592444	-13.592444	37.379222
752.281143	-4.611722	-4.611722	0.242722	11.165222	11.165222	7.524389
752.604089	27.913056	27.913056	2.427222	80.098333	80.098333	60.680556
752.926983	15.291500	15.291500	22.573167	4.369000	4.369000	11.650667
753.249825	11.650667	11.650667	29.854833	74.758444	74.758444	43.204556
753.572615	41.748222	41.748222	51.457111	45.389056	45.389056	40.534611
753.895352	7.281667	7.281667	-35.194722	18.204167	18.204167	-19.417778
754.218038	144.905167	144.905167	68.447667	146.118778	146.118778	85.438222
754.540671	90.049944	90.049944	47.573556	52.428000	52.428000	73.059389
754.863252	78.642000	78.642000	111.409500	94.418944	94.418944	51.942556
755.185781	75.729333	75.729333	89.079056	86.651833	86.651833	-5.582611
755.508258	91.749000	91.749000	112.380389	105.098722	105.098722	94.176222
755.830683	34.952000	34.952000	72.573944	20.388667	20.388667	38.592833
756.153056	21.602278	21.602278	117.477556	73.787556	73.787556	0.970889
756.475376	47.088111	47.088111	2.184500	10.679778	10.679778	49.515333
756.797644	-14.320611	-14.320611	13.592444	0.242722	0.242722	-17.961444
757.119860	13.835167	13.835167	32.039333	10.194333	10.194333	40.534611
757.442023	141.021611	141.021611	166.507444	96.118000	96.118000	111.894944
757.764135	6.310778	6.310778	9.951611	39.078278	39.078278	-3.398111
758.086194	84.710056	84.710056	150.245056	118.691167	118.691167	110.195889
758.408201	4.369000	4.369000	37.136500	8.009833	8.009833	34.709278
758.730155	50.486222	50.486222	40.777333	17.718722	17.718722	46.845389
759.052057	57.767889	57.767889	67.476778	107.525944	107.525944	99.030667
759.373907	-21.116833	-21.116833	6.796222	-11.407944	-11.407944	9.223444
759.695704	17.718722	17.718722	-13.835167	21.359556	21.359556	-34.466556
760.017449	-5.582611	-5.582611	17.476000	34.466556	34.466556	-12.864278
760.339142	71.603056	71.603056	42.476389	-50.971667	-50.971667	-46.117222
760.660782	104.370556	104.370556	29.126667	75.243889	75.243889	42.476389
760.982370	90.049944	90.049944	43.932722	76.700222	76.700222	94.904389
761.303905	1.213611	1.213611	7.281667	52.185278	52.185278	30.340278
761.625388	51.699833	51.699833	61.408722	112.380389	112.380389	106.312333
761.946818	27.913056	27.913056	42.476389	52.185278	52.185278	55.826111
762.268196	37.864667	37.864667	58.496056	68.204944	68.204944	68.204944
762.589521	9.223444	9.223444	-42.961833	32.282056	32.282056	18.932333
762.910794	81.554667	81.554667	58.496056	75.486611	75.486611	87.622722
763.232015	25.971278	25.971278	-9.223444	15.048778	15.048778	28.398500
763.553182	28.641222	28.641222	28.641222	12.864278	12.864278	39.563722
763.874298	21.116833	21.116833	62.379611	83.011000	83.011000	7.767111
764.195360	18.446889	18.446889	33.010222	62.136889	62.136889	54.855222
764.516370	50.971667	50.971667	29.126667	101.943333	101.943333	87.380000
764.837328	46.602667	46.602667	72.088500	47.816278	47.816278	70.874889
765.158233	79.855611	79.855611	30.097556	149.031444	149.031444	81.069222
765.479085	29.854833	29.854833	23.786778	17.718722	17.718722	15.291500
765.799885	29.126667	29.126667	40.049167	27.913056	27.913056	32.767500
766.120631	33.252944	33.252944	75.729333	6.553500	6.553500	55.097944
766.441326	82.525556	82.525556	95.875278	53.398889	53.398889	98.302500
766.761967	77.428389	77.428389	34.952000	39.806444	39.806444	95.632556
767.082556	8.738000	8.738000	12.378833	52.428000	52.428000	58.496056
767.403092	102.914222	102.914222	110.195889	163.594778	163.594778	118.691167
767.723575	46.602667	46.602667	97.574333	56.311556	56.311556	75.729333
768.044006	67.962222	67.962222	61.894167	7.281667	7.281667	41.262778
768.364384	100.972444	100.972444	90.049944	117.963000	117.963000	85.195500
768.684709	92.234444	92.234444	76.457500	84.952778	84.952778	77.671111
769.004981	44.903611	44.903611	60.680556	-10.922500	-10.922500	33.981111
769.325200	31.068444	31.068444	65.049556	39.563722	39.563722	33.495667
769.645367	32.767500	32.767500	23.058611	69.175833	69.175833	19.417778
769.965481	48.059000	48.059000	118.448444	62.622333	62.622333	65.049556
770.285541	-5.825333	-5.825333	60.923278	126.458278	126.458278	63.350500
770.605549	55.097944	55.097944	81.797389	102.428778	102.428778	74.515722
770.925504	40.291889	40.291889	48.787167	53.641611	53.641611	51.214389
771.245407	22.815889	22.815889	38.592833	-20.874111	-20.874111	27.670333
771.565256	31.068444	31.068444	11.650667	-21.116833	-21.116833	33.495667
771.885052	80.826500	80.826500	84.467333	20.145944	20.145944	78.399278
772.204795	30.583000	30.583000	56.068833	79.127444	79.127444	62.136889
772.524486	-8.738000	-8.738000	31.311167	56.797000	56.797000	-6.310778
772.844123	52.670722	52.670722	66.020444	39.321000	39.321000	78.156556
773.163708	137.380778	137.380778	85.195500	110.681333	110.681333	64.564111
773.483239	5.582611	5.582611	15.291500	-11.407944	-11.407944	11.650667
773.802717	186.410667	186.410667	216.750944	199.760389	199.760389	186.410667
774.122142	40.291889	40.291889	117.963000	46.359944	46.359944	66.991333
774.441515	17.718722	17.718722	41.990944	-7.767111	-7.767111	31.068444
774.760834	0.000000	0.000000	15.776944	14.563333	14.563333	-48.544444
775.080100	68.690389	68.690389	69.904000	55.340667	55.340667	69.904000
775.399313	51.942556	51.942556	66.505889	41.020056	41.020056	75.001167
775.718473	50.000778	50.000778	133.739944	64.564111	64.564111	107.040500
776.037579	26.214000	26.214000	37.136500	20.145944	20.145944	57.767889
776.356633	44.175444	44.175444	25.971278	80.583778	80.583778	57.525167
776.675633	86.166389	86.166389	83.739167	53.398889	53.398889	61.894167
776.994580	61.408722	61.408722	65.049556	82.040111	82.040111	58.981500
777.313474	82.282833	82.282833	90.778111	66.505889	66.505889	51.942556
777.632315	35.922889	35.922889	34.709278	18.932333	18.932333	122.089278
777.951103	92.477167	92.477167	90.049944	71.845778	71.845778	75.486611
778.269837	48.544444	48.544444	54.612500	-3.640833	-3.640833	38.835556
778.588518	63.593222	63.593222	11.407944	11.407944	11.407944	17.476000
778.907146	-9.223444	-9.223444	36.893778	2.912667	2.912667	-26.214000
779.225720	19.417778	19.417778	1.213611	31.553889	31.553889	21.845000
779.544242	-9.708889	-9.708889	48.544444	53.398889	53.398889	76.457500
779.862709	44.903611	44.903611	81.311944	44.903611	44.903611	58.253333
780.181124	22.573167	22.573167	50.486222	75.972056	75.972056	33.495667
780.499485	65.049556	65.049556	0.728167	-5.339889	-5.339889	1.941778
780.817793	15.291500	15.291500	63.835944	14.077889	14.077889	32.282056
781.136047	31.796611	31.796611	-0.970889	35.437444	35.437444	58.496056
781.454248	45.874500	45.874500	68.933111	79.855611	79.855611	99.273389
781.772396	40.777333	40.777333	-27.184889	18.932333	18.932333	8.009833
782.090490	16.019667	16.019667	25.728556	63.350500	63.350500	14.806056
782.408531	9.223444	9.223444	-8.980722	48.059000	48.059000	27.427611
782.726518	77.913833	77.913833	31.796611	75.486611	75.486611	37.864667
783.044452	-13.107000	-13.107000	-2.184500	11.165222	11.165222	29.369389
783.362333	9.466167	9.466167	50.728944	-1.456333	-1.456333	10.679778
783.680159	28.641222	28.641222	-15.048778	22.573167	22.573167	40.777333
783.997933	75.001167	75.001167	147.817833	87.137278	87.137278	107.768667
784.315653	59.466944	59.466944	40.049167	32.767500	32.767500	64.321389
784.633319	-14.563333	-14.563333	64.321389	91.020833	91.020833	36.408333
784.950932	71.117611	71.117611	97.817056	49.272611	49.272611	55.340667
785.268491	18.932333	18.932333	51.699833	54.127056	54.127056	43.204556
785.585996	42.719111	42.719111	2.669944	3.883556	3.883556	13.592444
785.903448	13.592444	13.592444	28.155778	31.796611	31.796611	11.165222
786.220847	50.971667	50.971667	101.943333	50.971667	50.971667	30.340278
786.538191	22.573167	22.573167	57.767889	107.525944	107.525944	46.845389
786.855482	50.971667	50.971667	77.671111	65.535000	65.535000	55.826111
787.172720	42.233667	42.233667	2.184500	16.747833	16.747833	56.797000
787.489903	-3.883556	-3.883556	-58.496056	58.010611	58.010611	9.466167
787.807033	7.524389	7.524389	-2.184500	-17.961444	-17.961444	23.301333
788.124110	39.321000	39.321000	25.971278	74.515722	74.515722	63.593222
788.441132	86.894556	86.894556	38.350111	65.049556	65.049556	95.389833
788.758101	59.952389	59.952389	61.166000	51.457111	51.457111	102.428778
789.075016	77.428389	77.428389	106.555056	90.778111	90.778111	94.418944
789.391877	-7.524389	-7.524389	-2.669944	-35.437444	-35.437444	32.524778
789.708685	-26.214000	-26.214000	-6.796222	-0.728167	-0.728167	5.339889
790.025438	-17.476000	-17.476000	16.505111	49.272611	49.272611	8.009833
790.342138	-5.582611	-5.582611	24.757667	13.835167	13.835167	36.893778
790.658784	-26.942167	-26.942167	-53.641611	30.097556	30.097556	54.369778
790.975376	52.185278	52.185278	38.835556	55.826111	55.826111	64.321389
791.291915	75.486611	75.486611	82.768278	87.622722	87.622722	23.301333
791.608399	47.573556	47.573556	-26.456722	50.000778	50.000778	63.350500
791.924830	3.883556	3.883556	12.378833	5.097167	5.097167	-58.010611
792.241206	-16.747833	-16.747833	62.136889	-31.311167	-31.311167	12.378833
792.557529	13.835167	13.835167	38.107389	42.961833	42.961833	53.884333
792.873798	42.719111	42.719111	1.456333	34.223833	34.223833	13.592444
793.190012	22.087722	22.087722	18.446889	51.214389	51.214389	-31.311167
793.506173	-21.116833	-21.116833	12.864278	-6.553500	-6.553500	1.941778
793.822280	-14.320611	-14.320611	22.087722	70.632167	70.632167	17.233278
794.138333	12.621556	12.621556	19.903222	11.407944	11.407944	16.262389
794.454332	52.428000	52.428000	29.369389	20.874111	20.874111	66.991333
794.770277	75.972056	75.972056	46.845389	62.622333	62.622333	83.253722
795.086167	62.622333	62.622333	66.263167	44.418167	44.418167	4.369000
795.402004	88.350889	88.350889	7.038944	0.970889	0.970889	37.379222
795.717787	52.185278	52.185278	60.680556	78.884722	78.884722	43.690000
796.033515	4.126278	4.126278	-32.282056	28.398500	28.398500	-22.573167
796.349190	-1.941778	-1.941778	21.116833	39.321000	39.321000	17.476000
796.664810	73.544833	73.544833	37.136500	68.690389	68.690389	107.525944
796.980376	66.991333	66.991333	75.486611	-2.184500	-2.184500	70.632167
797.295888	41.020056	41.020056	26.456722	36.165611	36.165611	-9.951611
797.611346	32.524778	32.524778	36.165611	22.815889	22.815889	55.583389
797.926750	83.253722	83.253722	20.145944	58.981500	58.981500	60.195111
798.242099	84.224611	84.224611	74.515722	86.651833	86.651833	72.088500
798.557394	91.506278	91.506278	92.719889	100.001556	100.001556	98.787944
798.872635	32.767500	32.767500	63.107778	67.962222	67.962222	50.971667
799.187822	-47.088111	-47.088111	43.932722	-4.611722	-4.611722	30.583000
799.502955	59.466944	59.466944	38.835556	30.340278	30.340278	115.293056
799.818033	74.515722	74.515722	96.360722	92.719889	92.719889	40.534611
800.133057	30.340278	30.340278	36.408333	21.845000	21.845000	30.340278
800.448027	94.176222	94.176222	61.408722	55.340667	55.340667	78.399278
800.762942	-12.378833	-12.378833	-7.524389	56.797000	56.797000	21.602278
801.077803	-2.669944	-2.669944	49.515333	-16.019667	-16.019667	34.952000
801.392610	-32.524778	-32.524778	-21.602278	12.378833	12.378833	-65.292278
801.707362	33.981111	33.981111	82.525556	69.175833	69.175833	94.661667
802.022060	44.175444	44.175444	29.612111	35.680167	35.680167	42.961833
802.336703	54.127056	54.127056	73.544833	56.554278	56.554278	56.554278
802.651292	51.214389	51.214389	45.146333	6.310778	6.310778	22.087722
802.965827	-6.068056	-6.068056	26.699444	25.485833	25.485833	9.708889
803.280307	55.340667	55.340667	-1.699056	12.864278	12.864278	55.340667
803.594733	64.321389	64.321389	46.117222	46.117222	46.117222	18.204167
803.909104	7.524389	7.524389	14.806056	35.437444	35.437444	22.087722
804.223421	29.612111	29.612111	-34.709278	29.612111	29.612111	45.389056
804.537684	-13.592444	-13.592444	-7.524389	38.592833	38.592833	7.038944
804.851891	26.214000	26.214000	6.796222	6.796222	6.796222	27.427611
805.166045	36.165611	36.165611	26.456722	16.747833	16.747833	11.893389
805.480143	93.690778	93.690778	63.350500	71.845778	71.845778	54.855222
805.794188	69.175833	69.175833	19.417778	67.962222	67.962222	14.563333
806.108177	24.272222	24.272222	-7.281667	23.058611	23.058611	21.845000
806.422112	153.643167	153.643167	180.342611	133.011778	133.011778	128.157333
806.735993	45.146333	45.146333	43.932722	-8.252556	-8.252556	6.310778
807.049818	68.933111	68.933111	64.078667	79.855611	79.855611	88.350889
807.363590	24.514944	24.514944	24.514944	65.777722	65.777722	37.864667
807.677306	109.710444	109.710444	55.097944	52.670722	52.670722	74.515722
807.990968	66.020444	66.020444	38.107389	36.893778	36.893778	69.661278
808.304575	75.729333	75.729333	80.583778	41.748222	41.748222	100.001556
808.618128	32.767500	32.767500	66.748611	95.875278	95.875278	92.234444
808.931625	75.486611	75.486611	74.273000	45.146333	45.146333	98.545222
809.245068	3.398111	3.398111	15.534222	82.282833	82.282833	9.466167
809.558457	-20.874111	-20.874111	-66.991333	-3.883556	-3.883556	-24.514944
809.871790	9.951611	9.951611	98.545222	2.669944	2.669944	53.641611
810.185069	-20.631389	-20.631389	40.049167	42.476389	42.476389	89.807222
810.498293	112.380389	112.380389	108.739556	111.166778	111.166778	116.021222
810.811462	18.204167	18.204167	48.544444	8.495278	8.495278	48.544444
811.124576	103.156944	103.156944	75.243889	-9.708889	-9.708889	77.671111
811.437636	4.854444	4.854444	-10.922500	15.776944	15.776944	38.835556
811.750640	46.359944	46.359944	2.669944	62.136889	62.136889	53.641611
812.063590	27.913056	27.913056	-9.708889	72.816667	72.816667	32.767500
812.376485	18.446889	18.446889	110.681333	9.951611	9.951611	87.622722
812.689325	42.961833	42.961833	44.175444	11.407944	11.407944	78.156556
813.002110	18.689611	18.689611	5.339889	40.534611	40.534611	52.670722
813.314840	46.117222	46.117222	83.739167	26.699444	26.699444	47.330833
813.627516	52.185278	52.185278	27.913056	44.903611	44.903611	27.913056
813.940136	21.845000	21.845000	16.990556	78.884722	78.884722	41.262778
814.252701	89.564500	89.564500	50.728944	61.651444	61.651444	4.611722
814.565212	37.136500	37.136500	61.408722	90.535389	90.535389	73.544833
814.877667	8.738000	8.738000	19.660500	17.233278	17.233278	28.155778
815.190067	74.273000	74.273000	93.690778	132.526333	132.526333	91.263556
815.502413	34.952000	34.952000	79.855611	14.320611	14.320611	36.165611
815.814703	64.564111	64.564111	43.932722	74.273000	74.273000	64.564111
816.126938	78.156556	78.156556	87.865444	85.438222	85.438222	45.389056
816.439118	39.806444	39.806444	60.437833	135.681722	135.681722	65.292278
816.751243	-1.941778	-1.941778	-28.641222	33.252944	33.252944	17.476000
817.063313	118.205722	118.205722	74.515722	85.438222	85.438222	87.865444
817.375328	25.728556	25.728556	51.214389	74.273000	74.273000	52.428000
817.687287	58.253333	58.253333	40.049167	44.903611	44.903611	50.971667
817.999192	77.185667	77.185667	55.340667	60.195111	60.195111	84.467333
818.311041	40.049167	40.049167	98.302500	46.117222	46.117222	55.826111
818.622835	50.971667	50.971667	-8.495278	24.272222	24.272222	41.262778
818.934574	34.466556	34.466556	79.370167	61.166000	61.166000	-4.369000
819.246258	-6.553500	-6.553500	17.718722	34.709278	34.709278	23.786778
819.557887	-4.126278	-4.126278	18.932333	-4.126278	-4.126278	32.282056
819.869460	25.728556	25.728556	71.845778	42.719111	42.719111	46.359944
820.180978	4.126278	4.126278	36.893778	32.039333	32.039333	-11.650667
820.492441	-3.398111	-3.398111	45.146333	43.932722	43.932722	26.942167
820.803848	42.961833	42.961833	98.787944	29.612111	29.612111	108.496833
821.115200	50.243500	50.243500	21.116833	-22.573167	-22.573167	112.137667
821.426497	25.971278	25.971278	69.661278	49.029889	49.029889	61.166000
821.737739	26.456722	26.456722	26.456722	2.184500	2.184500	17.961444
822.048925	61.651444	61.651444	47.088111	70.146722	70.146722	66.505889
822.360056	56.797000	56.797000	64.078667	60.437833	60.437833	48.301722
822.671131	39.078278	39.078278	23.301333	29.369389	29.369389	42.719111
822.982151	-21.359556	-21.359556	-12.864278	-12.864278	-12.864278	-22.573167
823.293116	-2.669944	-2.669944	10.679778	-35.437444	-35.437444	5.825333
823.604025	-16.262389	-16.262389	41.990944	-21.116833	-21.116833	28.641222
823.914879	37.864667	37.864667	52.428000	-10.679778	-10.679778	23.301333
824.225677	13.835167	13.835167	61.166000	5.339889	5.339889	-35.922889
824.536420	0.242722	0.242722	35.437444	28.155778	28.155778	52.428000
824.847107	66.263167	66.263167	20.145944	-6.553500	-6.553500	8.009833
825.157739	37.136500	37.136500	27.427611	46.845389	46.845389	44.418167
825.468315	15.048778	15.048778	38.107389	18.689611	18.689611	40.534611
825.778836	75.486611	75.486611	23.301333	121.603833	121.603833	88.836333
826.089301	-5.825333	-5.825333	51.214389	71.845778	71.845778	64.564111
826.399711	45.631778	45.631778	50.486222	32.282056	32.282056	90.535389
826.710065	24.029500	24.029500	45.874500	13.107000	13.107000	2.184500
827.020363	49.515333	49.515333	84.710056	38.592833	38.592833	105.341444
827.330606	-17.961444	-17.961444	-25.243111	-27.670333	-27.670333	20.874111
827.640794	22.330444	22.330444	11.407944	34.466556	34.466556	5.339889
827.950925	34.952000	34.952000	-14.806056	-5.097167	-5.097167	14.320611
828.261001	90.535389	90.535389	61.408722	48.059000	48.059000	60.195111
828.571022	52.185278	52.185278	24.272222	24.272222	24.272222	25.485833
828.880986	-0.242722	-0.242722	51.942556	70.146722	70.146722	3.398111
829.190895	32.524778	32.524778	25.243111	4.611722	4.611722	27.670333
829.500749	30.340278	30.340278	13.349722	70.389444	70.389444	74.030278
829.810546	95.147111	95.147111	44.175444	42.961833	42.961833	68.447667
830.120288	61.651444	61.651444	33.738389	72.573944	72.573944	49.515333
830.429974	80.826500	80.826500	66.263167	56.554278	56.554278	90.535389
830.739604	49.758056	49.758056	0.000000	93.448056	93.448056	74.030278
831.049179	128.885500	128.885500	77.913833	150.730500	150.730500	85.195500
831.358697	-0.728167	-0.728167	76.942944	23.544056	23.544056	52.670722
831.668160	33.010222	33.010222	43.932722	54.855222	54.855222	34.223833
831.977567	22.573167	22.573167	15.291500	75.972056	75.972056	-27.184889
832.286918	59.466944	59.466944	64.321389	41.262778	41.262778	117.720278
832.596213	6.553500	6.553500	-43.204556	15.048778	15.048778	-17.718722
832.905453	27.427611	27.427611	86.894556	46.845389	46.845389	60.195111
833.214636	-46.845389	-46.845389	24.757667	36.893778	36.893778	66.020444
833.523764	48.301722	48.301722	-8.738000	-25.728556	-25.728556	22.815889
833.832836	124.031056	124.031056	96.118000	104.613278	104.613278	96.118000
834.141851	62.622333	62.622333	82.040111	37.136500	37.136500	57.767889
834.450811	-30.583000	-30.583000	-46.359944	7.038944	7.038944	37.379222
834.759715	-28.883944	-28.883944	-19.175056	36.651056	36.651056	11.165222
835.068563	6.553500	6.553500	44.175444	-5.582611	-5.582611	34.466556
835.377355	51.457111	51.457111	6.553500	-21.359556	-21.359556	11.407944
835.686091	2.669944	2.669944	18.446889	47.573556	47.573556	40.291889
835.994770	20.145944	20.145944	28.641222	10.437056	10.437056	72.331222
836.303394	43.932722	43.932722	74.273000	74.273000	74.273000	86.409111
836.611962	17.961444	17.961444	50.728944	53.156167	53.156167	36.165611
836.920473	10.194333	10.194333	15.048778	8.980722	8.980722	17.476000
837.228929	-1.941778	-1.941778	12.621556	-33.495667	-33.495667	35.680167
837.537328	31.068444	31.068444	33.495667	-21.116833	-21.116833	12.864278
837.845672	39.321000	39.321000	124.273778	75.729333	75.729333	90.292667
838.153959	19.903222	19.903222	47.816278	44.175444	44.175444	32.039333
838.462190	64.564111	64.564111	57.282444	34.223833	34.223833	83.981889
838.770365	82.282833	82.282833	65.292278	101.700611	101.700611	96.846167
839.078483	70.632167	70.632167	62.136889	76.700222	76.700222	36.651056
839.386546	57.039722	57.039722	21.845000	53.398889	53.398889	-19.417778
839.694552	19.175056	19.175056	-8.738000	30.097556	30.097556	-1.456333
840.002502	0.485444	0.485444	39.321000	95.147111	95.147111	36.893778
840.310396	2.912667	2.912667	-32.282056	103.642389	103.642389	46.602667
840.618233	38.592833	38.592833	-3.883556	-43.932722	-43.932722	13.107000
840.926015	64.078667	64.078667	116.263944	71.360333	71.360333	93.205333
841.233739	49.029889	49.029889	87.865444	22.330444	22.330444	21.116833
841.541408	113.351278	113.351278	89.079056	92.719889	92.719889	61.166000
841.849020	-36.651056	-36.651056	34.952000	24.029500	24.029500	-19.660500
842.156576	41.262778	41.262778	57.039722	44.903611	44.903611	48.544444
842.464076	67.962222	67.962222	33.981111	112.865833	112.865833	33.981111
842.771519	42.719111	42.719111	33.010222	50.000778	50.000778	43.932722
843.078906	-8.252556	-8.252556	31.796611	-7.038944	-7.038944	-48.301722
843.386237	70.874889	70.874889	7.767111	11.407944	11.407944	42.961833
843.693511	28.155778	28.155778	-3.398111	46.359944	46.359944	-30.097556
844.000729	30.097556	30.097556	14.320611	19.175056	19.175056	31.311167
844.307890	61.894167	61.894167	33.981111	0.000000	0.000000	47.330833
844.614995	128.157333	128.157333	44.418167	77.185667	77.185667	83.253722
844.922043	-26.214000	-26.214000	13.835167	56.311556	56.311556	8.980722
845.229035	10.922500	10.922500	-31.553889	19.417778	19.417778	18.204167
845.535970	42.233667	42.233667	17.961444	13.107000	13.107000	45.874500
845.842849	18.932333	18.932333	27.427611	39.563722	39.563722	62.622333
846.149671	50.971667	50.971667	31.553889	20.631389	20.631389	29.126667
846.456437	85.923667	85.923667	93.205333	7.038944	7.038944	53.156167
846.763146	22.815889	22.815889	87.137278	-2.669944	-2.669944	5.825333
847.069799	48.301722	48.301722	32.524778	19.175056	19.175056	27.670333
847.376395	32.039333	32.039333	-3.155389	19.903222	19.903222	30.825722
847.682934	59.952389	59.952389	116.992111	75.729333	75.729333	83.011000
847.989417	32.039333	32.039333	18.689611	-33.495667	-33.495667	-49.272611
848.295843	-5.582611	-5.582611	89.079056	69.661278	69.661278	39.321000
848.602213	27.184889	27.184889	67.234056	34.466556	34.466556	29.612111
848.908526	3.640833	3.640833	18.204167	63.107778	63.107778	21.845000
849.214782	26.942167	26.942167	69.418556	42.719111	42.719111	12.378833
849.520981	56.797000	56.797000	34.952000	27.670333	27.670333	44.660889
849.827124	28.398500	28.398500	69.661278	61.166000	61.166000	22.330444
850.133210	13.107000	13.107000	-51.214389	-35.437444	-35.437444	-39.078278
850.439239	29.612111	29.612111	64.806833	-27.427611	-27.427611	35.680167
850.745212	48.544444	48.544444	75.243889	49.758056	49.758056	61.894167
851.051128	23.786778	23.786778	65.049556	48.059000	48.059000	35.922889
851.356987	50.000778	50.000778	41.505500	-11.893389	-11.893389	30.583000
851.662789	131.555444	131.555444	109.710444	98.787944	98.787944	119.419333
851.968534	101.215167	101.215167	44.175444	58.738778	58.738778	29.612111
852.274223	-22.815889	-22.815889	-4.611722	59.709667	59.709667	22.087722
852.579854	20.145944	20.145944	44.418167	61.408722	61.408722	26.214000
852.885429	33.495667	33.495667	-2.912667	4.369000	4.369000	-11.407944
853.190947	54.855222	54.855222	19.660500	23.301333	23.301333	20.874111
853.496408	11.407944	11.407944	-0.728167	32.039333	32.039333	16.262389
853.801812	41.020056	41.020056	15.534222	36.165611	36.165611	16.747833
854.107160	0.728167	0.728167	8.009833	27.427611	27.427611	44.418167
854.412450	65.535000	65.535000	18.204167	75.243889	75.243889	86.166389
854.717683	73.544833	73.544833	52.913444	82.040111	82.040111	56.554278
855.022859	38.350111	38.350111	-22.330444	12.864278	12.864278	27.427611
855.327979	42.961833	42.961833	44.175444	78.156556	78.156556	68.447667
855.633041	73.544833	73.544833	55.340667	34.709278	34.709278	95.389833
855.938046	94.176222	94.176222	74.758444	92.962611	92.962611	50.486222
856.242995	37.136500	37.136500	54.127056	26.214000	26.214000	96.603444
856.547886	-13.349722	-13.349722	25.485833	21.845000	21.845000	-10.922500
856.852720	20.874111	20.874111	-30.097556	-27.670333	-27.670333	-2.184500
857.157497	13.592444	13.592444	18.446889	-11.893389	-11.893389	31.796611
857.462217	54.127056	54.127056	58.981500	12.864278	12.864278	6.796222
857.766880	94.661667	94.661667	76.457500	16.990556	16.990556	-14.563333
858.071486	37.136500	37.136500	34.709278	65.049556	65.049556	26.214000
858.376035	1.456333	1.456333	25.728556	-17.961444	-17.961444	12.378833
858.680526	29.612111	29.612111	55.097944	22.330444	22.330444	-43.204556
858.984961	41.020056	41.020056	49.515333	42.233667	42.233667	39.806444
859.289338	60.680556	60.680556	53.398889	25.485833	25.485833	41.262778
859.593658	52.670722	52.670722	72.088500	85.438222	85.438222	91.506278
859.897921	110.681333	110.681333	37.864667	117.963000	117.963000	100.972444
860.202126	69.661278	69.661278	64.806833	91.506278	91.506278	76.942944
860.506275	-41.748222	-41.748222	-78.156556	-57.525167	-57.525167	0.728167
860.810366	77.185667	77.185667	18.932333	17.718722	17.718722	60.195111
861.114399	-4.611722	-4.611722	96.118000	28.155778	28.155778	63.350500
861.418376	52.670722	52.670722	63.593222	73.302111	73.302111	112.137667
861.722295	70.146722	70.146722	49.515333	2.184500	2.184500	70.146722
862.026157	29.854833	29.854833	0.728167	38.350111	38.350111	52.913444
862.329961	64.806833	64.806833	24.757667	-21.359556	-21.359556	25.971278
862.633709	-16.990556	-16.990556	-0.000000	31.553889	31.553889	82.525556
862.937398	47.573556	47.573556	90.049944	107.040500	107.040500	18.446889
863.241031	5.582611	5.582611	-2.912667	8.009833	8.009833	10.437056
863.544606	6.068056	6.068056	18.204167	-23.058611	-23.058611	52.185278
863.848124	24.272222	24.272222	31.553889	9.708889	9.708889	-21.845000
864.151584	61.408722	61.408722	38.350111	66.263167	66.263167	55.340667
864.454987	14.320611	14.320611	0.970889	38.592833	38.592833	-29.369389
864.758332	15.291500	15.291500	-27.184889	-0.485444	-0.485444	-28.398500
865.061620	1.699056	1.699056	59.952389	-5.582611	-5.582611	-29.854833
865.364850	51.942556	51.942556	58.010611	45.874500	45.874500	48.301722
865.668023	20.145944	20.145944	21.359556	54.127056	54.127056	16.505111
865.971138	60.923278	60.923278	87.622722	83.981889	83.981889	93.690778
866.274196	9.223444	9.223444	27.427611	-2.912667	-2.912667	11.650667
866.577196	-25.000389	-25.000389	2.912667	7.767111	7.767111	-20.145944
866.880139	51.214389	51.214389	25.728556	71.845778	71.845778	99.758833
867.183024	38.107389	38.107389	45.389056	68.447667	68.447667	29.612111
867.485852	51.699833	51.699833	61.408722	52.913444	52.913444	45.631778
867.788622	55.097944	55.097944	-4.369000	61.166000	61.166000	104.856000
868.091334	47.088111	47.088111	44.660889	55.583389	55.583389	8.252556
868.393989	17.476000	17.476000	25.971278	11.407944	11.407944	7.767111
868.696586	23.058611	23.058611	26.699444	-10.922500	-10.922500	48.544444
868.999125	5.339889	5.339889	86.651833	35.680167	35.680167	44.175444
869.301607	3.883556	3.883556	45.146333	50.000778	50.000778	45.146333
869.604031	45.631778	45.631778	69.904000	71.117611	71.117611	29.854833
869.906397	-27.913056	-27.913056	-13.349722	-21.845000	-21.845000	-14.563333
870.208706	-32.039333	-32.039333	33.495667	1.941778	1.941778	-16.262389
870.510957	22.573167	22.573167	18.932333	43.204556	43.204556	28.641222
870.813150	-31.796611	-31.796611	-24.514944	-24.514944	-24.514944	17.961444
871.115285	59.224222	59.224222	66.505889	60.437833	60.437833	82.282833
871.417363	71.117611	71.117611	79.612889	69.904000	69.904000	14.077889
871.719382	53.398889	53.398889	15.776944	8.495278	8.495278	53.398889
872.021344	37.621944	37.621944	84.952778	27.913056	27.913056	69.175833
872.323248	77.185667	77.185667	58.981500	38.350111	38.350111	40.777333
872.625094	14.806056	14.806056	-0.970889	-26.456722	-26.456722	62.136889
872.926883	76.457500	76.457500	83.739167	70.389444	70.389444	52.185278
873.228613	51.457111	51.457111	49.029889	24.757667	24.757667	59.952389
873.530286	33.252944	33.252944	106.069611	70.874889	70.874889	72.088500
873.831900	30.825722	30.825722	61.166000	68.447667	68.447667	75.729333
874.133457	-1.941778	-1.941778	63.593222	38.107389	38.107389	51.457111
874.434956	4.611722	4.611722	49.515333	28.883944	28.883944	31.311167
874.736397	75.243889	75.243889	65.535000	70.389444	70.389444	36.408333
875.037780	19.903222	19.903222	6.553500	27.184889	27.184889	113.351278
875.339105	-6.310778	-6.310778	56.797000	59.224222	59.224222	48.301722
875.640371	8.252556	8.252556	-9.951611	-1.456333	-1.456333	-16.019667
875.941580	9.223444	9.223444	101.457889	25.000389	25.000389	-2.912667
876.242731	81.797389	81.797389	32.039333	44.175444	44.175444	-9.223444
876.543824	63.107778	63.107778	59.466944	25.485833	25.485833	33.981111
876.844859	-10.437056	-10.437056	29.612111	-12.864278	-12.864278	42.961833
877.145835	29.612111	29.612111	21.116833	58.738778	58.738778	44.175444
877.446754	10.437056	10.437056	14.077889	17.718722	17.718722	41.990944
877.747614	-2.184500	-2.184500	37.864667	-4.611722	-4.611722	-11.893389
878.048417	133.011778	133.011778	129.370944	32.282056	32.282056	108.739556
878.349161	46.117222	46.117222	20.631389	1.213611	1.213611	8.495278
878.649847	9.708889	9.708889	4.854444	25.485833	25.485833	-12.136111
878.950475	47.330833	47.330833	14.563333	23.058611	23.058611	50.971667
879.251045	67.476778	67.476778	61.408722	25.000389	25.000389	37.136500
879.551556	5.582611	5.582611	6.796222	21.359556	21.359556	67.476778
879.852010	92.234444	92.234444	60.680556	92.234444	92.234444	110.438611
880.152405	42.719111	42.719111	56.068833	30.583000	30.583000	23.301333
880.452741	-9.466167	-9.466167	35.437444	24.514944	24.514944	-16.747833
880.753020	22.330444	22.330444	79.370167	45.389056	45.389056	68.447667
881.053240	-9.466167	-9.466167	45.146333	39.078278	39.078278	50.000778
881.353402	61.408722	61.408722	58.981500	69.904000	69.904000	56.554278
881.653506	38.835556	38.835556	20.631389	41.262778	41.262778	-3.640833
881.953552	-65.535000	-65.535000	-43.690000	29.126667	29.126667	63.107778
882.253539	34.466556	34.466556	81.797389	17.476000	17.476000	28.398500
882.553467	-0.242722	-0.242722	83.496444	30.097556	30.097556	60.437833
882.853338	-58.496056	-58.496056	-0.242722	30.097556	30.097556	2.184500
883.153150	20.874111	20.874111	40.291889	76.700222	76.700222	-22.815889
883.452903	55.583389	55.583389	-13.592444	13.107000	13.107000	78.642000
883.752598	57.282444	57.282444	59.709667	74.273000	74.273000	28.155778
884.052235	25.971278	25.971278	64.806833	50.243500	50.243500	28.398500
884.351814	-11.407944	-11.407944	32.282056	61.408722	61.408722	29.854833
884.651333	53.884333	53.884333	35.680167	30.825722	30.825722	47.816278
884.950795	29.854833	29.854833	16.505111	18.932333	18.932333	52.913444
885.250198	57.282444	57.282444	26.942167	23.301333	23.301333	70.632167
885.549542	21.602278	21.602278	14.320611	11.893389	11.893389	-2.669944
885.848828	-29.369389	-29.369389	5.825333	-6.310778	-6.310778	48.301722
886.148055	12.864278	12.864278	61.408722	82.040111	82.040111	60.195111
886.447224	31.068444	31.068444	49.272611	69.904000	69.904000	52.913444
886.746335	12.136111	12.136111	10.922500	9.708889	9.708889	21.845000
887.045386	51.942556	51.942556	51.942556	45.874500	45.874500	21.602278
887.344379	119.419333	119.419333	169.177389	140.050722	140.050722	116.992111
887.643314	16.747833	16.747833	25.243111	50.728944	50.728944	0.970889
887.942190	51.699833	51.699833	20.145944	-19.903222	-19.903222	-11.407944
888.241007	15.534222	15.534222	-25.728556	45.874500	45.874500	19.175056
888.539766	24.514944	24.514944	39.078278	43.932722	43.932722	37.864667
888.838465	49.029889	49.029889	-9.223444	13.835167	13.835167	35.680167
889.137107	37.864667	37.864667	47.573556	81.554667	81.554667	39.078278
889.435689	57.525167	57.525167	62.379611	50.243500	50.243500	18.689611
889.734213	90.292667	90.292667	106.069611	95.147111	95.147111	113.351278
890.032678	89.079056	89.079056	169.177389	78.156556	78.156556	92.719889
890.331085	13.835167	13.835167	6.553500	5.339889	5.339889	-17.718722
