wavelength	0.010431	0.010425	0.010675	0.010754	0.010437	0.010559

178.106480	-38.350111	-23.786778	-23.786778	6.553500	-22.573167	-22.573167
178.493382	-38.350111	-23.786778	-23.786778	6.553500	-22.573167	-22.573167
178.880256	-38.350111	-23.786778	-23.786778	6.553500	-22.573167	-22.573167
179.267103	16.262389	32.039333	32.039333	11.407944	41.748222	41.748222
179.653922	-18.689611	-15.048778	-15.048778	-49.029889	-1.699056	-1.699056
180.040713	75.001167	49.515333	49.515333	3.398111	31.311167	31.311167
180.427476	23.058611	33.981111	33.981111	13.349722	20.631389	20.631389
180.814211	10.437056	107.525944	107.525944	51.699833	99.030667	99.030667
181.200918	30.583000	92.477167	92.477167	13.592444	25.728556	25.728556
181.587598	89.321778	117.234833	117.234833	67.476778	54.127056	54.127056
181.974250	140.536167	83.496444	83.496444	108.982278	105.341444	105.341444
182.360873	48.059000	69.904000	69.904000	50.486222	60.195111	60.195111
182.747469	90.778111	100.487000	100.487000	76.214778	59.224222	59.224222
183.134037	58.253333	50.971667	50.971667	63.107778	3.640833	3.640833
183.520577	139.808000	139.808000	139.808000	103.399667	121.603833	121.603833
183.907089	35.194722	42.476389	42.476389	83.739167	71.603056	71.603056
184.293573	62.865056	49.515333	49.515333	11.893389	34.952000	34.952000
184.680029	71.845778	25.728556	25.728556	41.505500	80.341056	80.341056
185.066457	132.040889	166.022000	166.022000	138.108944	157.526722	157.526722
185.452857	59.709667	167.721056	167.721056	66.991333	141.021611	141.021611
185.839229	126.458278	75.486611	75.486611	16.019667	81.554667	81.554667
186.225573	82.525556	70.389444	70.389444	83.739167	75.243889	75.243889
186.611889	56.068833	-8.252556	-8.252556	59.709667	29.369389	29.369389
186.998176	27.913056	57.039722	57.039722	98.302500	76.457500	76.457500
187.384436	64.078667	130.827278	130.827278	72.573944	49.515333	49.515333
187.770668	60.680556	92.234444	92.234444	77.671111	52.185278	52.185278
188.156871	125.972833	105.341444	105.341444	125.972833	134.468111	134.468111
188.543046	96.360722	113.351278	113.351278	92.719889	114.564889	114.564889
188.929193	17.233278	37.864667	37.864667	68.204944	42.719111	42.719111
189.315312	-24.029500	46.359944	46.359944	70.632167	83.981889	83.981889
189.701403	77.428389	71.360333	71.360333	72.573944	152.672278	152.672278
190.087466	97.817056	122.089278	122.089278	15.291500	45.631778	45.631778
190.473500	67.719500	93.205333	93.205333	88.350889	72.573944	72.573944
190.859506	114.564889	118.205722	118.205722	129.128222	171.604611	171.604611
191.245484	48.787167	59.709667	59.709667	34.223833	104.613278	104.613278
191.631434	65.049556	63.835944	63.835944	60.195111	78.399278	78.399278
192.017355	59.709667	85.195500	85.195500	124.031056	108.254111	108.254111
192.403248	135.681722	113.836722	113.836722	58.010611	61.651444	61.651444
192.789113	35.194722	55.826111	55.826111	55.826111	82.525556	82.525556
193.174949	106.069611	50.243500	50.243500	52.670722	53.884333	53.884333
193.560757	68.447667	101.215167	101.215167	49.029889	121.846556	121.846556
193.946537	158.497611	116.021222	116.021222	101.457889	85.680944	85.680944
194.332288	140.778889	133.497222	133.497222	122.574722	87.380000	87.380000
194.718011	71.360333	145.390611	145.390611	55.583389	116.263944	116.263944
195.103705	153.157722	36.651056	36.651056	70.632167	96.118000	96.118000
195.489371	60.437833	26.456722	26.456722	-11.165222	42.233667	42.233667
195.875009	47.330833	43.690000	43.690000	72.816667	15.776944	15.776944
196.260618	67.719500	127.186444	127.186444	90.778111	132.040889	132.040889
196.646199	-9.708889	4.854444	4.854444	-25.485833	-6.068056	-6.068056
197.031751	58.496056	36.651056	36.651056	35.437444	54.855222	54.855222
197.417275	68.933111	51.942556	51.942556	106.555056	49.515333	49.515333
197.802771	39.563722	27.427611	27.427611	44.418167	61.408722	61.408722
198.188237	52.913444	89.321778	89.321778	46.845389	75.972056	75.972056
198.573676	39.078278	73.059389	73.059389	107.040500	43.932722	43.932722
198.959085	79.612889	4.369000	4.369000	51.699833	63.835944	63.835944
199.344466	101.700611	28.883944	28.883944	83.496444	21.602278	21.602278
199.729819	22.815889	104.127833	104.127833	64.078667	65.292278	65.292278
200.115143	118.691167	108.982278	108.982278	117.477556	77.428389	77.428389
200.500438	91.991722	68.933111	68.933111	84.710056	119.904778	119.904778
200.885705	-1.213611	40.049167	40.049167	24.272222	43.690000	43.690000
201.270943	126.943722	160.924833	160.924833	116.021222	147.575111	147.575111
201.656152	16.262389	19.903222	19.903222	38.107389	51.457111	51.457111
202.041333	104.370556	126.215556	126.215556	143.206111	104.370556	104.370556
202.426485	45.631778	116.021222	116.021222	147.575111	96.603444	96.603444
202.811608	66.991333	43.932722	43.932722	63.350500	64.564111	64.564111
203.196703	21.602278	32.524778	32.524778	45.874500	-20.874111	-20.874111
203.581769	87.380000	16.990556	16.990556	53.398889	15.776944	15.776944
203.966806	61.894167	98.302500	98.302500	46.117222	118.933889	118.933889
204.351814	14.320611	49.515333	49.515333	65.292278	75.001167	75.001167
204.736794	38.592833	60.437833	60.437833	25.243111	96.846167	96.846167
205.121745	46.117222	23.058611	23.058611	104.370556	100.729722	100.729722
205.506667	75.729333	90.292667	90.292667	143.691556	74.515722	74.515722
205.891560	84.952778	29.126667	29.126667	31.553889	13.349722	13.349722
206.276424	65.535000	57.039722	57.039722	57.039722	64.321389	64.321389
206.661260	107.768667	128.400056	128.400056	79.855611	70.146722	70.146722
207.046066	101.700611	166.022000	166.022000	88.350889	127.186444	127.186444
207.430844	99.758833	131.312722	131.312722	79.127444	75.486611	75.486611
207.815593	79.127444	79.127444	79.127444	54.855222	50.000778	50.000778
208.200313	40.777333	62.622333	62.622333	82.040111	68.690389	68.690389
208.585003	8.980722	101.215167	101.215167	35.680167	29.612111	29.612111
208.969665	67.476778	40.777333	40.777333	57.767889	73.544833	73.544833
209.354299	83.496444	75.001167	75.001167	102.914222	34.952000	34.952000
209.738903	10.922500	15.776944	15.776944	38.835556	-33.981111	-33.981111
210.123478	54.855222	80.341056	80.341056	47.573556	71.845778	71.845778
210.508024	116.506667	94.661667	94.661667	84.952778	94.661667	94.661667
210.892541	58.253333	94.661667	94.661667	69.175833	94.661667	94.661667
211.277029	135.681722	161.167556	161.167556	65.292278	113.836722	113.836722
211.661488	96.603444	80.826500	80.826500	126.943722	58.981500	58.981500
212.045918	70.146722	54.369778	54.369778	81.069222	54.369778	54.369778
212.430318	68.690389	20.145944	20.145944	35.922889	20.145944	20.145944
212.814690	60.923278	102.186056	102.186056	102.186056	120.390222	120.390222
213.199033	52.185278	42.476389	42.476389	35.194722	31.553889	31.553889
213.583346	58.253333	43.690000	43.690000	71.603056	53.398889	53.398889
213.967631	40.777333	101.457889	101.457889	45.631778	54.127056	54.127056
214.351886	64.321389	30.340278	30.340278	32.767500	66.748611	66.748611
214.736112	123.545611	93.205333	93.205333	81.069222	87.137278	87.137278
215.120309	26.699444	49.758056	49.758056	76.457500	69.175833	69.175833
215.504476	32.039333	36.893778	36.893778	36.893778	22.330444	22.330444
215.888615	87.865444	104.856000	104.856000	104.856000	50.243500	50.243500
216.272724	25.971278	68.447667	68.447667	24.757667	29.612111	29.612111
216.656804	73.787556	75.001167	75.001167	43.447278	61.651444	61.651444
217.040854	77.428389	-8.738000	-8.738000	-11.165222	71.360333	71.360333
217.424876	111.894944	51.214389	51.214389	104.613278	69.418556	69.418556
217.808868	123.060167	101.215167	101.215167	101.215167	41.748222	41.748222
218.192830	74.758444	34.709278	34.709278	73.544833	40.777333	40.777333
218.576764	50.000778	62.136889	62.136889	30.583000	54.855222	54.855222
218.960668	66.748611	121.361111	121.361111	69.175833	15.776944	15.776944
219.344543	107.768667	98.059778	98.059778	78.642000	55.583389	55.583389
219.728388	15.048778	25.971278	25.971278	51.457111	19.903222	19.903222
220.112204	146.604222	164.808389	164.808389	106.555056	149.031444	149.031444
220.495991	119.176611	134.953556	134.953556	91.263556	54.855222	54.855222
220.879748	121.603833	59.709667	59.709667	98.545222	108.254111	108.254111
221.263476	62.622333	41.990944	41.990944	25.000389	62.622333	62.622333
221.647174	50.486222	60.195111	60.195111	51.699833	61.408722	61.408722
222.030843	104.613278	100.972444	100.972444	77.913833	26.942167	26.942167
222.414482	70.389444	47.330833	47.330833	60.680556	-6.068056	-6.068056
222.798092	77.185667	49.272611	49.272611	117.234833	66.263167	66.263167
223.181672	89.564500	13.107000	13.107000	43.447278	-9.951611	-9.951611
223.565223	27.670333	54.369778	54.369778	100.487000	2.184500	2.184500
223.948744	77.185667	80.826500	80.826500	99.030667	75.972056	75.972056
224.332236	97.574333	57.525167	57.525167	76.942944	39.321000	39.321000
224.715698	103.399667	111.894944	111.894944	116.749389	127.671889	127.671889
225.099131	90.535389	37.136500	37.136500	34.709278	56.554278	56.554278
225.482534	14.806056	28.155778	28.155778	31.796611	85.195500	85.195500
225.865907	-5.339889	0.728167	0.728167	32.282056	37.136500	37.136500
226.249251	57.282444	69.418556	69.418556	50.000778	39.078278	39.078278
226.632565	150.245056	75.001167	75.001167	77.428389	130.827278	130.827278
227.015850	74.273000	68.204944	68.204944	88.836333	58.496056	58.496056
227.399104	31.553889	64.321389	64.321389	24.272222	32.767500	32.767500
227.782329	30.583000	45.146333	45.146333	48.787167	13.592444	13.592444
228.165525	35.922889	52.913444	52.913444	12.864278	25.000389	25.000389
228.548691	101.943333	49.758056	49.758056	32.767500	69.175833	69.175833
228.931827	4.369000	52.913444	52.913444	89.321778	14.077889	14.077889
229.314933	53.884333	75.729333	75.729333	130.341833	73.302111	73.302111
229.698009	98.302500	23.058611	23.058611	37.621944	57.039722	57.039722
230.081056	66.748611	94.661667	94.661667	75.243889	76.457500	76.457500
230.464073	39.078278	119.176611	119.176611	62.136889	139.808000	139.808000
230.847060	30.340278	99.516111	99.516111	46.117222	42.476389	42.476389
231.230017	71.360333	73.787556	73.787556	64.078667	85.923667	85.923667
231.612944	62.379611	21.116833	21.116833	-3.155389	16.262389	16.262389
231.995842	27.427611	21.359556	21.359556	44.418167	50.486222	50.486222
232.378709	42.961833	53.884333	53.884333	87.865444	-9.223444	-9.223444
232.761547	105.826889	148.303278	148.303278	142.235222	108.254111	108.254111
233.144355	23.301333	42.719111	42.719111	56.068833	54.855222	54.855222
233.527133	125.001944	76.457500	76.457500	97.088889	95.875278	95.875278
233.909881	47.088111	19.175056	19.175056	-8.738000	58.010611	58.010611
234.292599	76.457500	44.903611	44.903611	74.030278	-8.495278	-8.495278
234.675287	17.476000	81.797389	81.797389	72.088500	74.515722	74.515722
235.057945	30.340278	55.826111	55.826111	20.631389	69.175833	69.175833
235.440574	83.496444	38.592833	38.592833	67.719500	73.787556	73.787556
235.823172	70.632167	76.700222	76.700222	53.641611	43.932722	43.932722
236.205740	50.000778	57.282444	57.282444	75.486611	52.428000	52.428000
236.588278	67.234056	59.952389	59.952389	58.738778	79.370167	79.370167
236.970786	129.370944	124.516500	124.516500	112.380389	107.525944	107.525944
237.353264	109.953167	78.399278	78.399278	103.885111	97.817056	97.817056
237.735712	64.321389	95.875278	95.875278	58.253333	101.943333	101.943333
238.118130	41.990944	72.331222	72.331222	102.671500	82.040111	82.040111
238.500517	52.185278	53.398889	53.398889	26.699444	98.302500	98.302500
238.882875	97.574333	85.438222	85.438222	87.865444	12.621556	12.621556
239.265202	34.709278	43.204556	43.204556	72.331222	143.934278	143.934278
239.647499	72.573944	56.797000	56.797000	102.914222	90.778111	90.778111
240.029767	18.204167	67.962222	67.962222	66.748611	36.408333	36.408333
240.412003	21.359556	86.894556	86.894556	65.049556	72.331222	72.331222
240.794210	38.350111	69.904000	69.904000	77.185667	17.718722	17.718722
241.176387	37.136500	66.263167	66.263167	31.068444	37.136500	37.136500
241.558533	131.070000	78.884722	78.884722	55.826111	89.807222	89.807222
241.940649	108.011389	97.088889	97.088889	111.652222	87.380000	87.380000
242.322734	84.710056	89.564500	89.564500	96.846167	72.573944	72.573944
242.704790	44.660889	21.602278	21.602278	31.311167	0.970889	0.970889
243.086815	78.642000	60.437833	60.437833	53.156167	22.815889	22.815889
243.468810	61.166000	27.184889	27.184889	64.806833	-0.728167	-0.728167
243.850774	74.758444	71.117611	71.117611	103.885111	66.263167	66.263167
244.232709	119.662056	143.934278	143.934278	84.467333	91.749000	91.749000
244.614612	22.815889	27.670333	27.670333	53.156167	66.505889	66.505889
244.996486	62.865056	27.670333	27.670333	72.573944	25.243111	25.243111
245.378329	6.796222	51.699833	51.699833	22.573167	35.922889	35.922889
245.760142	25.485833	33.981111	33.981111	82.525556	8.495278	8.495278
246.141924	74.758444	90.535389	90.535389	133.011778	111.166778	111.166778
246.523676	35.680167	-3.155389	-3.155389	56.311556	29.612111	29.612111
246.905397	46.845389	79.612889	79.612889	27.427611	90.535389	90.535389
247.287088	169.662833	72.573944	72.573944	124.759222	87.137278	87.137278
247.668748	70.874889	41.748222	41.748222	69.661278	62.379611	62.379611
248.050378	81.311944	60.680556	60.680556	76.457500	89.807222	89.807222
248.431978	34.466556	40.534611	40.534611	27.184889	38.107389	38.107389
248.813547	75.001167	75.001167	75.001167	66.505889	89.564500	89.564500
249.195085	108.739556	67.476778	67.476778	95.389833	58.981500	58.981500
249.576593	-0.970889	53.641611	53.641611	-17.961444	5.097167	5.097167
249.958070	30.583000	30.583000	30.583000	12.378833	39.078278	39.078278
250.339517	53.156167	54.369778	54.369778	100.487000	76.214778	76.214778
250.720933	79.855611	43.447278	43.447278	43.447278	27.670333	27.670333
251.102318	59.466944	-3.640833	-3.640833	40.049167	-9.708889	-9.708889
251.483673	49.029889	66.020444	66.020444	29.612111	46.602667	46.602667
251.864997	27.184889	53.884333	53.884333	40.534611	18.689611	18.689611
252.246291	110.438611	59.466944	59.466944	33.981111	20.631389	20.631389
252.627554	57.525167	107.283222	107.283222	68.447667	40.534611	40.534611
253.008786	81.311944	38.835556	38.835556	-6.068056	74.030278	74.030278
253.389987	71.117611	83.253722	83.253722	143.934278	165.779278	165.779278
253.771158	83.253722	69.904000	69.904000	86.894556	65.049556	65.049556
254.152298	90.049944	50.000778	50.000778	91.263556	50.000778	50.000778
254.533408	52.185278	91.020833	91.020833	49.758056	47.330833	47.330833
254.914486	120.875667	112.380389	112.380389	99.030667	52.913444	52.913444
255.295534	71.117611	69.904000	69.904000	80.826500	65.049556	65.049556
255.676551	25.243111	48.301722	48.301722	24.029500	43.447278	43.447278
256.057537	92.719889	83.011000	83.011000	81.797389	19.903222	19.903222
256.438492	81.797389	24.757667	24.757667	49.029889	78.156556	78.156556
256.819417	92.234444	89.807222	89.807222	77.671111	109.225000	109.225000
257.200310	93.448056	120.147500	120.147500	13.349722	81.311944	81.311944
257.581173	20.631389	6.068056	6.068056	9.708889	26.699444	26.699444
257.962005	40.534611	61.166000	61.166000	56.311556	17.476000	17.476000
258.342806	83.253722	119.662056	119.662056	68.690389	101.457889	101.457889
258.723576	58.253333	53.398889	53.398889	38.835556	87.380000	87.380000
259.104315	78.399278	49.272611	49.272611	140.293444	108.739556	108.739556
259.485023	70.632167	66.991333	66.991333	59.709667	-2.184500	-2.184500
259.865700	30.097556	37.379222	37.379222	53.156167	79.855611	79.855611
260.246347	53.156167	117.477556	117.477556	13.107000	56.797000	56.797000
260.626962	54.855222	3.883556	3.883556	41.505500	46.359944	46.359944
261.007546	62.136889	64.564111	64.564111	53.641611	58.496056	58.496056
261.388099	65.535000	-60.680556	-60.680556	14.563333	3.640833	3.640833
261.768621	83.739167	112.865833	112.865833	76.457500	87.380000	87.380000
262.149112	50.971667	128.642778	128.642778	55.826111	97.088889	97.088889
262.529573	23.058611	40.049167	40.049167	58.253333	55.826111	55.826111
262.910002	31.068444	21.359556	21.359556	72.331222	45.631778	45.631778
263.290399	72.331222	90.535389	90.535389	117.234833	61.408722	61.408722
263.670766	20.874111	24.514944	24.514944	86.409111	114.322167	114.322167
264.051102	24.757667	19.903222	19.903222	28.398500	17.476000	17.476000
264.431406	76.214778	42.233667	42.233667	28.883944	31.311167	31.311167
264.811680	-18.932333	44.175444	44.175444	-25.000389	35.680167	35.680167
265.191922	111.409500	70.146722	70.146722	39.806444	112.623111	112.623111
265.572133	-13.107000	19.660500	19.660500	19.660500	90.049944	90.049944
265.952313	85.923667	54.369778	54.369778	70.146722	91.991722	91.991722
266.332461	38.107389	87.865444	87.865444	59.952389	33.252944	33.252944
266.712578	-38.107389	51.699833	51.699833	57.767889	41.990944	41.990944
267.092665	71.603056	89.807222	89.807222	70.389444	65.535000	65.535000
267.472719	59.952389	23.544056	23.544056	69.661278	62.379611	62.379611
267.852743	105.584167	103.156944	103.156944	77.671111	72.816667	72.816667
268.232735	56.311556	41.748222	41.748222	78.156556	42.961833	42.961833
268.612696	66.020444	29.612111	29.612111	39.321000	38.107389	38.107389
268.992626	82.040111	83.253722	83.253722	135.439000	91.749000	91.749000
269.372524	5.582611	32.282056	32.282056	71.117611	33.495667	33.495667
269.752391	102.914222	96.846167	96.846167	83.496444	83.496444	83.496444
270.132226	62.622333	18.932333	18.932333	62.622333	37.136500	37.136500
270.512030	84.224611	66.020444	66.020444	19.903222	49.029889	49.029889
270.891803	89.321778	52.913444	52.913444	55.340667	63.835944	63.835944
271.271545	61.651444	53.156167	53.156167	62.865056	30.097556	30.097556
271.651255	29.612111	30.825722	30.825722	-10.437056	38.107389	38.107389
272.030933	131.312722	88.836333	88.836333	76.700222	105.826889	105.826889
272.410580	60.437833	54.369778	54.369778	44.660889	34.952000	34.952000
272.790196	30.340278	86.166389	86.166389	69.175833	50.971667	50.971667
273.169780	56.068833	59.709667	59.709667	25.728556	75.486611	75.486611
273.549332	43.690000	48.544444	48.544444	36.408333	25.485833	25.485833
273.928853	49.029889	90.292667	90.292667	104.856000	140.050722	140.050722
274.308343	109.710444	22.330444	22.330444	63.593222	24.757667	24.757667
274.687800	57.525167	58.738778	58.738778	28.398500	50.243500	50.243500
275.067227	142.720667	114.807611	114.807611	123.302889	77.185667	77.185667
275.446622	123.060167	64.806833	64.806833	80.583778	115.778500	115.778500
275.825985	62.379611	90.292667	90.292667	108.496833	67.234056	67.234056
276.205316	61.408722	41.990944	41.990944	75.972056	54.127056	54.127056
276.584616	36.408333	49.758056	49.758056	93.448056	106.797778	106.797778
276.963885	93.448056	82.525556	82.525556	83.739167	40.049167	40.049167
277.343121	40.534611	50.243500	50.243500	79.370167	113.351278	113.351278
277.722326	166.264722	144.419722	144.419722	74.030278	131.070000	131.070000
278.101499	58.738778	107.283222	107.283222	79.370167	106.069611	106.069611
278.480641	68.933111	47.088111	47.088111	38.592833	48.301722	48.301722
278.859751	49.029889	39.321000	39.321000	46.602667	-14.077889	-14.077889
279.238829	38.835556	72.816667	72.816667	35.194722	41.262778	41.262778
279.617875	50.000778	40.291889	40.291889	97.331611	48.787167	48.787167
279.996890	77.913833	74.273000	74.273000	70.632167	51.214389	51.214389
280.375873	62.865056	78.642000	78.642000	68.933111	22.815889	22.815889
280.754824	19.660500	59.709667	59.709667	24.514944	19.660500	19.660500
281.133743	6.553500	38.107389	38.107389	69.661278	4.126278	4.126278
281.512631	32.767500	75.243889	75.243889	87.380000	41.262778	41.262778
281.891486	28.398500	90.292667	90.292667	78.156556	23.544056	23.544056
282.270310	114.079444	46.117222	46.117222	52.185278	21.845000	21.845000
282.649102	85.438222	42.961833	42.961833	90.292667	44.175444	44.175444
283.027862	36.408333	0.000000	0.000000	53.398889	63.107778	63.107778
283.406590	70.632167	53.641611	53.641611	108.254111	-10.679778	-10.679778
283.785286	85.195500	64.564111	64.564111	82.768278	60.923278	60.923278
284.163950	12.378833	26.942167	26.942167	121.603833	98.545222	98.545222
284.542582	83.739167	29.126667	29.126667	71.603056	128.642778	128.642778
284.921183	41.262778	72.816667	72.816667	61.894167	41.262778	41.262778
285.299751	-20.874111	15.534222	15.534222	4.611722	60.437833	60.437833
285.678287	85.680944	18.932333	18.932333	57.767889	61.408722	61.408722
286.056792	57.767889	63.835944	63.835944	32.282056	43.204556	43.204556
286.435264	13.592444	34.223833	34.223833	26.942167	17.233278	17.233278
286.813704	23.786778	58.981500	58.981500	28.641222	39.563722	39.563722
287.192112	134.225389	80.826500	80.826500	85.680944	118.448444	118.448444
287.570489	66.263167	-12.621556	-12.621556	5.582611	45.631778	45.631778
287.948833	119.419333	109.710444	109.710444	121.846556	100.001556	100.001556
288.327145	44.175444	74.515722	74.515722	39.321000	34.466556	34.466556
288.705425	86.166389	80.098333	80.098333	115.293056	71.603056	71.603056
289.083672	133.011778	114.807611	114.807611	85.680944	114.807611	114.807611
289.461888	84.224611	75.729333	75.729333	74.515722	83.011000	83.011000
289.840071	73.302111	64.806833	64.806833	66.020444	73.302111	73.302111
290.218223	53.641611	87.622722	87.622722	6.310778	37.864667	37.864667
290.596342	37.621944	25.485833	25.485833	19.417778	10.922500	10.922500
290.974429	16.019667	-8.252556	-8.252556	5.097167	33.010222	33.010222
291.352483	31.796611	98.545222	98.545222	64.564111	65.777722	65.777722
291.730506	82.040111	66.263167	66.263167	44.418167	45.631778	45.631778
292.108496	61.894167	35.194722	35.194722	10.922500	21.845000	21.845000
292.486454	-0.242722	91.991722	91.991722	20.388667	22.815889	22.815889
292.864379	48.544444	60.680556	60.680556	37.621944	25.485833	25.485833
293.242273	45.631778	10.437056	10.437056	-6.553500	21.359556	21.359556
293.620134	162.866611	111.894944	111.894944	130.099111	80.341056	80.341056
293.997963	134.468111	96.846167	96.846167	106.555056	125.972833	125.972833
294.375759	25.000389	20.145944	20.145944	-8.980722	14.077889	14.077889
294.753523	91.020833	66.748611	66.748611	46.117222	32.767500	32.767500
295.131255	63.593222	101.215167	101.215167	107.283222	68.447667	68.447667
295.508954	138.108944	83.496444	83.496444	133.254500	102.914222	102.914222
295.886621	-19.903222	5.582611	5.582611	57.767889	16.505111	16.505111
296.264255	198.546778	198.546778	198.546778	166.992889	103.885111	103.885111
296.641857	48.787167	37.864667	37.864667	0.242722	58.496056	58.496056
297.019427	91.263556	136.167167	136.167167	139.808000	119.176611	119.176611
297.396964	93.205333	50.728944	50.728944	96.846167	8.252556	8.252556
297.774469	78.642000	117.477556	117.477556	47.088111	60.437833	60.437833
298.151941	43.932722	65.777722	65.777722	104.613278	77.913833	77.913833
298.529380	63.107778	48.544444	48.544444	106.797778	0.000000	0.000000
298.906788	-26.214000	49.029889	49.029889	-34.709278	27.184889	27.184889
299.284162	174.274556	213.110111	213.110111	175.488167	209.469278	209.469278
299.661504	48.544444	101.943333	101.943333	74.030278	117.720278	117.720278
300.038814	20.145944	52.913444	52.913444	40.777333	43.204556	43.204556
300.416090	64.564111	1.456333	1.456333	1.456333	42.719111	42.719111
300.793335	125.244667	105.826889	105.826889	132.526333	83.981889	83.981889
301.170546	-13.835167	21.359556	21.359556	46.845389	1.941778	1.941778
301.547726	-17.718722	75.729333	75.729333	57.525167	44.175444	44.175444
301.924872	57.767889	25.000389	25.000389	77.185667	49.272611	49.272611
302.301986	37.379222	104.127833	104.127833	19.175056	62.865056	62.865056
302.679067	65.292278	81.069222	81.069222	27.670333	98.059778	98.059778
303.056115	47.330833	123.788333	123.788333	49.758056	36.408333	36.408333
303.433131	66.748611	15.776944	15.776944	1.213611	52.185278	52.185278
303.810114	114.322167	69.418556	69.418556	83.981889	73.059389	73.059389
304.187064	12.864278	-5.339889	-5.339889	22.573167	3.155389	3.155389
304.563982	88.836333	100.972444	100.972444	94.904389	76.700222	76.700222
304.940866	33.252944	104.856000	104.856000	8.980722	74.515722	74.515722
305.317718	46.845389	18.932333	18.932333	1.941778	45.631778	45.631778
305.694537	-6.310778	-16.019667	-16.019667	15.534222	30.097556	30.097556
306.071324	93.933500	74.515722	74.515722	81.797389	119.419333	119.419333
306.448077	69.904000	86.894556	86.894556	90.535389	63.835944	63.835944
306.824798	41.748222	46.602667	46.602667	18.689611	42.961833	42.961833
307.201486	54.369778	37.379222	37.379222	65.292278	68.933111	68.933111
307.578141	31.553889	10.922500	10.922500	7.281667	27.913056	27.913056
307.954763	34.466556	15.048778	15.048778	15.048778	27.184889	27.184889
308.331352	75.972056	65.049556	65.049556	96.603444	89.321778	89.321778
308.707908	61.894167	59.466944	59.466944	52.185278	24.272222	24.272222
309.084432	25.243111	56.797000	56.797000	36.165611	11.893389	11.893389
309.460922	14.077889	79.612889	79.612889	66.263167	32.282056	32.282056
309.837379	64.321389	54.612500	54.612500	82.525556	54.612500	54.612500
310.213804	26.699444	80.098333	80.098333	71.603056	69.175833	69.175833
310.590195	51.942556	95.632556	95.632556	50.728944	47.088111	47.088111
310.966554	75.001167	73.787556	73.787556	67.719500	83.496444	83.496444
311.342879	10.679778	33.738389	33.738389	91.991722	65.292278	65.292278
311.719172	43.690000	111.652222	111.652222	83.739167	36.408333	36.408333
312.095431	21.359556	84.467333	84.467333	66.263167	58.981500	58.981500
312.471657	24.514944	41.505500	41.505500	76.700222	50.000778	50.000778
312.847851	220.877222	207.527500	207.527500	169.905556	122.574722	122.574722
313.224011	48.301722	54.369778	54.369778	41.020056	49.515333	49.515333
313.600138	28.398500	12.621556	12.621556	34.466556	5.339889	5.339889
313.976232	73.544833	25.000389	25.000389	29.854833	51.699833	51.699833
314.352292	55.826111	50.971667	50.971667	58.253333	77.671111	77.671111
314.728320	108.496833	129.128222	129.128222	85.438222	75.729333	75.729333
315.104314	88.593611	67.962222	67.962222	94.661667	67.962222	67.962222
315.480275	34.952000	22.815889	22.815889	0.970889	27.670333	27.670333
315.856203	67.962222	98.302500	98.302500	91.020833	134.710833	134.710833
316.232098	65.292278	62.865056	62.865056	85.923667	83.496444	83.496444
316.607960	97.574333	66.020444	66.020444	24.757667	66.020444	66.020444
316.983788	105.341444	34.952000	34.952000	45.874500	82.282833	82.282833
317.359583	41.990944	84.467333	84.467333	63.835944	61.408722	61.408722
317.735345	99.758833	98.545222	98.545222	65.777722	79.127444	79.127444
318.111073	43.447278	19.175056	19.175056	32.524778	47.088111	47.088111
318.486769	11.650667	-1.699056	-1.699056	-4.126278	9.223444	9.223444
318.862430	71.360333	56.797000	56.797000	25.243111	76.214778	76.214778
319.238059	37.379222	48.301722	48.301722	39.806444	53.156167	53.156167
319.613654	18.932333	8.009833	8.009833	45.631778	57.767889	57.767889
319.989216	45.874500	-1.456333	-1.456333	32.524778	43.447278	43.447278
320.364744	22.087722	17.233278	17.233278	45.146333	-16.747833	-16.747833
320.740239	74.758444	65.049556	65.049556	22.573167	68.690389	68.690389
321.115701	50.728944	62.865056	62.865056	24.029500	20.388667	20.388667
321.491129	44.903611	55.826111	55.826111	13.349722	37.621944	37.621944
321.866524	51.699833	83.253722	83.253722	79.612889	43.204556	43.204556
322.241885	64.564111	82.768278	82.768278	96.118000	54.855222	54.855222
322.617213	51.942556	105.341444	105.341444	41.020056	44.660889	44.660889
322.992507	76.700222	132.526333	132.526333	114.322167	149.516889	149.516889
323.367768	117.720278	99.516111	99.516111	132.283611	116.506667	116.506667
323.742995	115.293056	69.175833	69.175833	78.884722	80.098333	80.098333
324.118189	13.349722	63.107778	63.107778	70.389444	75.243889	75.243889
324.493349	79.370167	67.234056	67.234056	68.447667	68.447667	68.447667
324.868475	32.767500	109.225000	109.225000	53.398889	95.875278	95.875278
325.243568	58.253333	35.194722	35.194722	76.457500	98.302500	98.302500
325.618628	-18.932333	25.971278	25.971278	27.184889	17.476000	17.476000
325.993654	59.466944	60.680556	60.680556	98.302500	60.680556	60.680556
326.368646	14.563333	26.699444	26.699444	21.845000	26.699444	26.699444
326.743604	37.379222	24.029500	24.029500	28.883944	28.883944	28.883944
327.118529	44.175444	64.806833	64.806833	57.525167	86.651833	86.651833
327.493421	40.534611	53.884333	53.884333	15.048778	-28.641222	-28.641222
327.868278	28.641222	33.495667	33.495667	45.631778	48.059000	48.059000
328.243102	26.699444	16.990556	16.990556	50.971667	57.039722	57.039722
328.617892	37.621944	54.612500	54.612500	16.990556	20.631389	20.631389
328.992648	76.942944	49.029889	49.029889	120.632944	81.797389	81.797389
329.367371	90.535389	94.176222	94.176222	103.885111	79.612889	79.612889
329.742060	78.156556	95.147111	95.147111	58.738778	87.865444	87.865444
330.116715	137.866222	28.641222	28.641222	136.652611	79.612889	79.612889
330.491336	44.418167	80.826500	80.826500	96.603444	96.603444	96.603444
330.865924	114.807611	38.350111	38.350111	49.272611	58.981500	58.981500
331.240477	101.457889	66.263167	66.263167	101.457889	83.253722	83.253722
331.614997	121.846556	55.097944	55.097944	84.224611	63.593222	63.593222
331.989483	66.748611	91.020833	91.020833	43.690000	54.612500	54.612500
332.363935	42.233667	90.778111	90.778111	39.806444	54.369778	54.369778
332.738354	78.884722	57.039722	57.039722	69.175833	87.380000	87.380000
333.112738	137.380778	122.817444	122.817444	107.040500	124.031056	124.031056
333.487088	32.039333	72.088500	72.088500	10.194333	67.234056	67.234056
333.861405	73.302111	49.029889	49.029889	70.874889	55.097944	55.097944
334.235687	76.942944	57.525167	57.525167	129.128222	74.515722	74.515722
334.609936	52.185278	69.175833	69.175833	32.767500	-33.981111	-33.981111
334.984150	62.136889	114.322167	114.322167	91.263556	62.136889	62.136889
335.358331	27.670333	39.806444	39.806444	47.088111	82.282833	82.282833
335.732478	20.388667	37.379222	37.379222	41.020056	24.029500	24.029500
336.106590	53.156167	73.787556	73.787556	72.573944	61.651444	61.651444
336.480669	116.749389	143.448833	143.448833	97.331611	92.477167	92.477167
336.854713	59.709667	40.291889	40.291889	130.099111	51.214389	51.214389
337.228724	35.194722	58.253333	58.253333	41.262778	26.699444	26.699444
337.602700	118.448444	86.894556	86.894556	61.408722	95.389833	95.389833
337.976642	67.234056	124.273778	124.273778	91.506278	61.166000	61.166000
338.350550	75.001167	38.592833	38.592833	36.165611	89.564500	89.564500
338.724424	60.680556	55.826111	55.826111	49.758056	59.466944	59.466944
339.098264	37.864667	54.855222	54.855222	68.204944	70.632167	70.632167
339.472070	101.700611	90.778111	90.778111	83.496444	90.778111	90.778111
339.845842	55.583389	67.719500	67.719500	91.991722	83.496444	83.496444
340.219579	66.991333	25.728556	25.728556	70.632167	52.428000	52.428000
340.593282	-7.281667	9.708889	9.708889	52.185278	26.699444	26.699444
340.966951	81.554667	82.768278	82.768278	85.195500	128.885500	128.885500
341.340586	50.000778	20.874111	20.874111	9.951611	-5.825333	-5.825333
341.714186	7.281667	9.708889	9.708889	19.417778	18.204167	18.204167
342.087752	60.923278	111.894944	111.894944	86.409111	47.573556	47.573556
342.461284	87.865444	69.661278	69.661278	66.020444	89.079056	89.079056
342.834782	44.903611	104.370556	104.370556	36.408333	110.438611	110.438611
343.208245	104.370556	69.175833	69.175833	59.466944	69.175833	69.175833
343.581674	-3.398111	30.583000	30.583000	48.787167	35.437444	35.437444
343.955069	60.923278	16.019667	16.019667	80.341056	37.864667	37.864667
344.328429	-4.126278	-4.126278	-4.126278	23.786778	-25.971278	-25.971278
344.701755	62.136889	68.204944	68.204944	42.719111	64.564111	64.564111
345.075047	64.564111	41.505500	41.505500	-25.243111	52.428000	52.428000
345.448304	45.874500	128.400056	128.400056	105.341444	94.418944	94.418944
345.821526	5.339889	29.612111	29.612111	39.321000	25.971278	25.971278
346.194715	65.777722	43.932722	43.932722	11.165222	66.991333	66.991333
346.567869	64.806833	49.029889	49.029889	-3.155389	36.893778	36.893778
346.940988	26.699444	6.068056	6.068056	37.621944	-15.776944	-15.776944
347.314073	33.010222	-26.456722	-26.456722	81.554667	-0.970889	-0.970889
347.687123	84.224611	75.729333	75.729333	76.942944	55.097944	55.097944
348.060139	7.038944	21.602278	21.602278	-22.087722	24.029500	24.029500
348.433121	22.573167	15.291500	15.291500	-18.689611	57.767889	57.767889
348.806067	85.195500	47.573556	47.573556	94.904389	120.390222	120.390222
349.178980	84.467333	46.845389	46.845389	78.399278	54.127056	54.127056
349.551858	132.769056	89.079056	89.079056	154.614056	123.060167	123.060167
349.924701	103.642389	80.583778	80.583778	144.905167	115.778500	115.778500
350.297509	67.962222	87.380000	87.380000	44.903611	76.457500	76.457500
350.670283	42.476389	76.457500	76.457500	38.835556	33.981111	33.981111
351.043023	73.302111	73.302111	73.302111	84.224611	89.079056	89.079056
351.415727	23.544056	39.321000	39.321000	17.476000	4.126278	4.126278
351.788397	128.157333	133.011778	133.011778	101.457889	100.244278	100.244278
352.161033	74.515722	17.476000	17.476000	81.797389	40.534611	40.534611
352.533633	90.292667	78.156556	78.156556	66.020444	101.215167	101.215167
352.906199	89.321778	61.408722	61.408722	69.904000	38.350111	38.350111
353.278731	56.311556	70.874889	70.874889	53.884333	51.457111	51.457111
353.651227	-2.669944	71.360333	71.360333	30.097556	44.660889	44.660889
354.023689	114.807611	32.282056	32.282056	114.807611	67.476778	67.476778
354.396116	66.748611	41.262778	41.262778	77.671111	36.408333	36.408333
354.768508	72.816667	70.389444	70.389444	3.640833	42.476389	42.476389
355.140866	86.651833	27.184889	27.184889	33.252944	21.116833	21.116833
355.513188	30.825722	18.689611	18.689611	51.457111	53.884333	53.884333
355.885476	-9.223444	33.252944	33.252944	23.544056	49.029889	49.029889
356.257729	76.700222	143.448833	143.448833	111.894944	150.730500	150.730500
356.629947	66.263167	57.767889	57.767889	67.476778	92.962611	92.962611
357.002130	91.749000	34.709278	34.709278	62.622333	51.699833	51.699833
357.374279	47.573556	46.359944	46.359944	39.078278	60.923278	60.923278
357.746392	99.758833	87.622722	87.622722	86.409111	98.545222	98.545222
358.118471	63.350500	36.651056	36.651056	56.068833	73.059389	73.059389
358.490514	77.185667	73.544833	73.544833	77.185667	67.476778	67.476778
358.862523	73.544833	94.176222	94.176222	89.321778	96.603444	96.603444
359.234497	95.147111	104.856000	104.856000	74.515722	140.050722	140.050722
359.606436	35.194722	33.981111	33.981111	3.640833	32.767500	32.767500
359.978339	46.845389	40.777333	40.777333	88.108167	38.350111	38.350111
360.350208	140.050722	85.438222	85.438222	87.865444	47.816278	47.816278
360.722042	8.252556	13.107000	13.107000	55.583389	-18.446889	-18.446889
361.093841	17.476000	101.215167	101.215167	76.942944	49.029889	49.029889
361.465604	88.350889	19.175056	19.175056	123.545611	101.700611	101.700611
361.837333	63.107778	99.516111	99.516111	52.185278	47.330833	47.330833
362.209026	49.515333	65.292278	65.292278	22.815889	42.233667	42.233667
362.580685	39.563722	34.709278	34.709278	56.554278	33.495667	33.495667
362.952308	148.060556	100.729722	100.729722	46.117222	44.903611	44.903611
363.323896	98.787944	38.107389	38.107389	49.029889	42.961833	42.961833
363.695449	12.378833	7.524389	7.524389	70.632167	-0.970889	-0.970889
364.066967	40.534611	45.389056	45.389056	0.485444	91.506278	91.506278
364.438450	138.108944	104.127833	104.127833	128.400056	129.613667	129.613667
364.809897	77.185667	35.922889	35.922889	83.253722	56.554278	56.554278
365.181310	66.748611	112.865833	112.865833	54.612500	89.807222	89.807222
365.552687	43.204556	92.962611	92.962611	74.758444	-6.553500	-6.553500
365.924028	58.738778	100.001556	100.001556	104.856000	62.379611	62.379611
366.295335	43.204556	17.718722	17.718722	25.000389	9.223444	9.223444
366.666606	64.564111	90.049944	90.049944	34.223833	52.428000	52.428000
367.037842	99.758833	158.012167	158.012167	92.477167	121.603833	121.603833
367.409043	10.437056	15.291500	15.291500	67.476778	16.505111	16.505111
367.780209	13.107000	5.825333	5.825333	-1.456333	4.611722	4.611722
368.151339	18.932333	45.631778	45.631778	92.962611	34.709278	34.709278
368.522434	52.185278	64.321389	64.321389	54.612500	91.020833	91.020833
368.893493	16.019667	13.592444	13.592444	-0.970889	9.951611	9.951611
369.264517	51.457111	73.302111	73.302111	63.593222	30.825722	30.825722
369.635506	50.486222	89.321778	89.321778	86.894556	41.990944	41.990944
370.006459	65.535000	83.739167	83.739167	14.563333	-29.126667	-29.126667
370.377377	58.253333	33.981111	33.981111	16.990556	7.281667	7.281667
370.748260	66.748611	55.826111	55.826111	76.457500	47.330833	47.330833
371.119107	42.961833	44.175444	44.175444	72.088500	68.447667	68.447667
371.489918	42.476389	-9.708889	-9.708889	-6.068056	42.476389	42.476389
371.860694	17.233278	-75.001167	-75.001167	-7.038944	41.505500	41.505500
372.231435	26.456722	42.233667	42.233667	51.942556	56.797000	56.797000
372.602140	35.194722	46.117222	46.117222	55.826111	76.457500	76.457500
372.972809	62.379611	29.612111	29.612111	51.457111	58.738778	58.738778
373.343444	29.369389	6.310778	6.310778	81.554667	41.505500	41.505500
373.714042	33.738389	90.778111	90.778111	84.710056	59.224222	59.224222
374.084605	72.573944	147.817833	147.817833	111.409500	122.332000	122.332000
374.455132	49.272611	48.059000	48.059000	25.000389	8.009833	8.009833
374.825624	20.874111	31.796611	31.796611	39.078278	29.369389	29.369389
375.196080	28.155778	36.651056	36.651056	59.709667	65.777722	65.777722
375.566501	14.806056	24.514944	24.514944	65.777722	13.592444	13.592444
375.936885	42.476389	42.476389	42.476389	55.826111	37.621944	37.621944
376.307235	51.699833	-1.699056	-1.699056	-8.980722	11.650667	11.650667
376.677548	136.652611	125.730111	125.730111	152.429556	118.448444	118.448444
377.047826	58.981500	63.835944	63.835944	54.127056	25.000389	25.000389
377.418068	101.457889	90.535389	90.535389	66.263167	60.195111	60.195111
377.788275	126.458278	56.068833	56.068833	103.399667	81.554667	81.554667
378.158445	47.816278	69.661278	69.661278	91.506278	57.525167	57.525167
378.528580	20.874111	56.068833	56.068833	70.632167	65.777722	65.777722
378.898679	53.398889	67.962222	67.962222	84.952778	70.389444	70.389444
379.268743	76.457500	25.485833	25.485833	35.194722	47.330833	47.330833
379.638770	77.428389	129.613667	129.613667	105.341444	144.177000	144.177000
380.008762	5.825333	21.602278	21.602278	37.379222	93.205333	93.205333
380.378718	101.457889	123.302889	123.302889	97.817056	102.671500	102.671500
380.748638	91.749000	90.535389	90.535389	82.040111	35.922889	35.922889
381.118523	64.321389	76.457500	76.457500	38.835556	36.408333	36.408333
381.488371	90.292667	70.874889	70.874889	36.893778	67.234056	67.234056
381.858184	-18.932333	17.476000	17.476000	47.816278	6.553500	6.553500
382.227960	31.796611	63.350500	63.350500	53.641611	48.787167	48.787167
382.597701	38.107389	52.670722	52.670722	63.593222	17.476000	17.476000
382.967406	55.826111	15.776944	15.776944	15.776944	52.185278	52.185278
383.337075	39.563722	22.573167	22.573167	51.699833	14.077889	14.077889
383.706708	3.640833	43.690000	43.690000	49.758056	9.708889	9.708889
384.076304	66.748611	156.555833	156.555833	52.185278	14.563333	14.563333
384.445865	66.263167	50.486222	50.486222	56.554278	8.009833	8.009833
384.815390	30.097556	21.602278	21.602278	70.146722	38.592833	38.592833
385.184879	58.010611	25.243111	25.243111	59.224222	11.893389	11.893389
385.554332	35.922889	3.155389	3.155389	12.864278	39.563722	39.563722
385.923749	143.934278	107.525944	107.525944	96.603444	130.584556	130.584556
386.293130	110.924056	114.564889	114.564889	109.710444	108.496833	108.496833
386.662474	35.437444	20.874111	20.874111	76.700222	64.564111	64.564111
387.031783	50.971667	46.117222	46.117222	94.661667	54.612500	54.612500
387.401055	59.952389	0.485444	0.485444	58.738778	44.175444	44.175444
387.770292	74.758444	33.495667	33.495667	90.535389	34.709278	34.709278
388.139492	56.311556	25.971278	25.971278	69.661278	58.738778	58.738778
388.508656	106.069611	73.302111	73.302111	76.942944	89.079056	89.079056
388.877784	67.962222	53.398889	53.398889	10.922500	9.708889	9.708889
389.246876	27.670333	11.893389	11.893389	-18.446889	3.398111	3.398111
389.615931	44.418167	52.913444	52.913444	32.282056	85.680944	85.680944
389.984950	50.728944	-3.883556	-3.883556	66.505889	38.592833	38.592833
390.353933	75.243889	95.875278	95.875278	88.593611	24.272222	24.272222
390.722880	60.680556	61.894167	61.894167	76.457500	93.448056	93.448056
391.091791	19.660500	37.864667	37.864667	0.242722	22.087722	22.087722
391.460665	111.166778	124.516500	124.516500	129.370944	122.089278	122.089278
391.829503	104.370556	83.739167	83.739167	54.612500	163.837500	163.837500
392.198304	82.525556	27.913056	27.913056	42.476389	23.058611	23.058611
392.567070	38.350111	50.486222	50.486222	65.049556	-32.039333	-32.039333
392.935799	15.776944	-10.922500	-10.922500	40.049167	40.049167	40.049167
393.304491	25.728556	20.874111	20.874111	11.165222	88.836333	88.836333
393.673148	115.535778	97.331611	97.331611	121.603833	82.768278	82.768278
394.041768	22.087722	70.632167	70.632167	18.446889	25.728556	25.728556
394.410351	90.778111	93.205333	93.205333	113.836722	106.555056	106.555056
394.778898	120.390222	83.981889	83.981889	109.467722	128.885500	128.885500
395.147409	167.721056	170.148278	170.148278	175.002722	175.002722	175.002722
395.515883	62.379611	80.583778	80.583778	73.302111	56.311556	56.311556
395.884321	76.457500	58.253333	58.253333	16.990556	7.281667	7.281667
396.252722	41.262778	92.234444	92.234444	117.720278	94.661667	94.661667
396.621087	88.836333	79.127444	79.127444	65.777722	42.719111	42.719111
396.989415	66.263167	33.495667	33.495667	60.195111	46.845389	46.845389
397.357707	89.564500	65.292278	65.292278	104.127833	70.146722	70.146722
397.725962	110.438611	77.671111	77.671111	48.544444	27.913056	27.913056
398.094181	70.874889	51.457111	51.457111	47.816278	25.971278	25.971278
398.462363	32.039333	57.525167	57.525167	61.166000	29.612111	29.612111
398.830508	25.000389	-21.116833	-21.116833	15.291500	12.864278	12.864278
399.198617	47.816278	78.156556	78.156556	143.691556	114.564889	114.564889
399.566689	47.573556	64.564111	64.564111	90.049944	56.068833	56.068833
399.934725	13.107000	30.097556	30.097556	66.505889	-13.592444	-13.592444
400.302724	3.398111	36.165611	36.165611	8.252556	39.806444	39.806444
400.670687	34.709278	80.826500	80.826500	44.418167	38.350111	38.350111
401.038612	40.291889	75.486611	75.486611	54.855222	51.214389	51.214389
401.406501	92.719889	38.107389	38.107389	49.029889	74.515722	74.515722
401.774354	43.447278	19.175056	19.175056	9.466167	36.165611	36.165611
402.142169	49.515333	14.320611	14.320611	68.933111	47.088111	47.088111
402.509948	100.244278	44.418167	44.418167	32.282056	45.631778	45.631778
402.877690	72.816667	66.748611	66.748611	65.535000	72.816667	72.816667
403.245396	16.262389	39.321000	39.321000	52.670722	45.389056	45.389056
403.613064	83.496444	-41.505500	-41.505500	60.437833	76.214778	76.214778
403.980696	17.718722	-11.407944	-11.407944	31.068444	49.272611	49.272611
404.348291	72.331222	107.525944	107.525944	49.272611	46.845389	46.845389
404.715849	81.554667	58.496056	58.496056	31.796611	63.350500	63.350500
405.083370	26.699444	44.903611	44.903611	1.213611	48.544444	48.544444
405.450855	39.321000	53.884333	53.884333	46.602667	21.116833	21.116833
405.818303	93.448056	132.283611	132.283611	111.652222	70.389444	70.389444
406.185713	44.418167	32.282056	32.282056	0.728167	15.291500	15.291500
406.553087	88.593611	67.962222	67.962222	78.884722	49.758056	49.758056
406.920424	55.826111	77.671111	77.671111	94.661667	101.943333	101.943333
407.287724	8.495278	1.213611	1.213611	20.631389	14.563333	14.563333
407.654987	26.942167	64.564111	64.564111	82.768278	90.049944	90.049944
408.022213	38.592833	72.573944	72.573944	107.768667	91.991722	91.991722
408.389402	41.505500	22.087722	22.087722	77.913833	90.049944	90.049944
408.756554	64.564111	74.273000	74.273000	68.204944	85.195500	85.195500
409.123669	63.107778	49.758056	49.758056	43.690000	44.903611	44.903611
409.490748	57.767889	37.136500	37.136500	60.195111	79.612889	79.612889
409.857789	88.350889	77.428389	77.428389	112.623111	90.778111	90.778111
410.224793	75.972056	28.641222	28.641222	73.544833	73.544833	73.544833
410.591760	51.942556	33.738389	33.738389	56.797000	58.010611	58.010611
410.958689	28.155778	69.418556	69.418556	58.496056	35.437444	35.437444
411.325582	29.126667	32.767500	32.767500	46.117222	86.166389	86.166389
411.692438	33.252944	19.903222	19.903222	52.670722	32.039333	32.039333
412.059256	132.769056	50.243500	50.243500	49.029889	96.360722	96.360722
412.426038	96.360722	104.856000	104.856000	81.797389	63.593222	63.593222
412.792782	31.553889	53.398889	53.398889	91.020833	36.408333	36.408333
413.159489	109.953167	109.953167	109.953167	105.098722	129.370944	129.370944
413.526159	21.602278	38.592833	38.592833	87.137278	50.728944	50.728944
413.892792	81.554667	-13.107000	-13.107000	16.019667	40.291889	40.291889
414.259387	43.690000	77.671111	77.671111	84.952778	101.943333	101.943333
414.625945	22.330444	23.544056	23.544056	38.107389	41.748222	41.748222
414.992466	35.437444	57.282444	57.282444	92.477167	-8.252556	-8.252556
415.358950	74.515722	73.302111	73.302111	96.360722	67.234056	67.234056
415.725396	24.272222	64.321389	64.321389	69.175833	32.767500	32.767500
416.091806	17.233278	69.418556	69.418556	58.496056	36.651056	36.651056
416.458177	99.030667	62.622333	62.622333	27.427611	37.136500	37.136500
416.824512	29.854833	54.127056	54.127056	94.176222	48.059000	48.059000
417.190809	28.883944	7.038944	7.038944	32.524778	8.252556	8.252556
417.557069	57.282444	37.864667	37.864667	73.059389	66.991333	66.991333
417.923291	4.369000	32.282056	32.282056	45.631778	-15.048778	-15.048778
418.289476	69.661278	35.680167	35.680167	55.097944	5.339889	5.339889
418.655624	21.602278	5.825333	5.825333	72.573944	-1.456333	-1.456333
419.021734	80.583778	36.893778	36.893778	74.515722	68.447667	68.447667
419.387807	48.059000	62.622333	62.622333	55.340667	27.427611	27.427611
419.753843	80.098333	84.952778	84.952778	99.516111	111.652222	111.652222
420.119841	10.922500	19.417778	19.417778	53.398889	13.349722	13.349722
420.485801	-17.718722	25.971278	25.971278	27.184889	79.370167	79.370167
420.851724	64.321389	50.971667	50.971667	63.107778	52.185278	52.185278
421.217609	13.107000	-25.728556	-25.728556	2.184500	15.534222	15.534222
421.583457	6.553500	59.952389	59.952389	98.787944	91.506278	91.506278
421.949268	66.748611	1.213611	1.213611	61.894167	87.380000	87.380000
422.315041	72.573944	21.602278	21.602278	62.865056	2.184500	2.184500
422.680776	46.845389	101.457889	101.457889	57.767889	54.127056	54.127056
423.046474	76.700222	128.885500	128.885500	116.749389	99.758833	99.758833
423.412134	26.942167	33.010222	33.010222	103.399667	24.514944	24.514944
423.777756	28.398500	21.116833	21.116833	68.447667	32.039333	32.039333
424.143341	35.437444	30.583000	30.583000	47.573556	1.456333	1.456333
424.508888	-14.077889	-25.000389	-25.000389	40.534611	34.466556	34.466556
424.874398	12.621556	51.457111	51.457111	45.389056	0.485444	0.485444
425.239870	30.097556	22.815889	22.815889	28.883944	36.165611	36.165611
425.605304	91.020833	75.243889	75.243889	84.952778	43.690000	43.690000
425.970701	60.195111	28.641222	28.641222	25.000389	52.913444	52.913444
426.336059	99.516111	38.835556	38.835556	80.098333	24.272222	24.272222
426.701381	-10.194333	-4.126278	-4.126278	28.641222	6.796222	6.796222
427.066664	-44.903611	3.640833	3.640833	-31.553889	-10.922500	-10.922500
427.431909	33.981111	38.835556	38.835556	78.884722	83.739167	83.739167
427.797117	20.145944	49.272611	49.272611	32.282056	35.922889	35.922889
428.162287	78.399278	18.932333	18.932333	50.486222	96.603444	96.603444
428.527419	65.777722	68.204944	68.204944	-9.466167	23.301333	23.301333
428.892514	31.553889	49.758056	49.758056	61.894167	70.389444	70.389444
429.257570	112.623111	75.001167	75.001167	91.991722	94.418944	94.418944
429.622589	66.748611	74.030278	74.030278	36.408333	88.593611	88.593611
429.987570	30.340278	50.971667	50.971667	4.854444	35.194722	35.194722
430.352513	57.039722	26.699444	26.699444	66.748611	52.185278	52.185278
430.717418	137.380778	151.944111	151.944111	98.545222	150.730500	150.730500
431.082285	75.972056	37.136500	37.136500	25.000389	80.826500	80.826500
431.447114	52.428000	59.709667	59.709667	90.049944	-5.825333	-5.825333
431.811905	29.126667	8.495278	8.495278	69.175833	-7.281667	-7.281667
432.176659	0.485444	70.874889	70.874889	47.816278	55.097944	55.097944
432.541374	86.166389	104.370556	104.370556	120.147500	70.389444	70.389444
432.906051	21.116833	72.088500	72.088500	39.321000	61.166000	61.166000
433.270691	-8.009833	25.971278	25.971278	2.912667	25.971278	25.971278
433.635292	72.816667	103.156944	103.156944	74.030278	69.175833	69.175833
433.999855	1.941778	113.594000	113.594000	54.127056	62.622333	62.622333
434.364380	64.564111	111.894944	111.894944	34.223833	79.127444	79.127444
434.728867	34.466556	74.515722	74.515722	42.961833	47.816278	47.816278
435.093317	86.166389	54.612500	54.612500	93.448056	116.506667	116.506667
435.457728	77.671111	54.612500	54.612500	42.476389	41.262778	41.262778
435.822100	57.282444	65.777722	65.777722	69.418556	39.078278	39.078278
436.186435	47.330833	54.612500	54.612500	81.311944	77.671111	77.671111
436.550732	83.253722	73.544833	73.544833	91.749000	101.457889	101.457889
436.914990	91.263556	68.204944	68.204944	56.068833	57.282444	57.282444
437.279210	54.369778	96.846167	96.846167	78.642000	88.350889	88.350889
437.643392	-6.068056	33.981111	33.981111	26.699444	43.690000	43.690000
438.007536	5.097167	24.514944	24.514944	5.097167	60.923278	60.923278
438.371642	56.068833	70.632167	70.632167	76.700222	83.981889	83.981889
438.735709	33.981111	99.516111	99.516111	54.612500	63.107778	63.107778
439.099739	53.884333	98.787944	98.787944	63.593222	5.339889	5.339889
439.463730	104.856000	153.400444	153.400444	144.905167	132.769056	132.769056
439.827682	97.817056	90.535389	90.535389	43.204556	99.030667	99.030667
440.191597	53.398889	42.476389	42.476389	38.835556	23.058611	23.058611
440.555473	63.350500	81.554667	81.554667	65.777722	86.409111	86.409111
440.919310	33.495667	74.758444	74.758444	111.166778	124.516500	124.516500
441.283110	117.720278	93.448056	93.448056	109.225000	94.661667	94.661667
441.646871	90.535389	99.030667	99.030667	119.662056	120.875667	120.875667
442.010593	97.574333	86.651833	86.651833	79.370167	42.961833	42.961833
442.374278	30.097556	76.214778	76.214778	73.787556	94.418944	94.418944
442.737924	70.632167	74.273000	74.273000	59.709667	102.186056	102.186056
443.101531	123.302889	79.612889	79.612889	83.253722	51.699833	51.699833
443.465100	47.088111	128.400056	128.400056	22.815889	98.059778	98.059778
443.828631	85.438222	115.778500	115.778500	50.243500	63.593222	63.593222
444.192123	0.485444	72.088500	72.088500	13.835167	75.729333	75.729333
444.555577	29.126667	-24.272222	-24.272222	23.058611	71.603056	71.603056
444.918992	36.408333	75.243889	75.243889	46.117222	60.680556	60.680556
445.282368	84.952778	120.147500	120.147500	104.370556	60.680556	60.680556
445.645707	30.825722	24.757667	24.757667	27.184889	30.825722	30.825722
446.009006	43.204556	32.282056	32.282056	21.359556	56.554278	56.554278
446.372267	82.768278	97.331611	97.331611	73.059389	73.059389	73.059389
446.735490	51.699833	50.486222	50.486222	49.272611	35.922889	35.922889
447.098674	19.903222	39.321000	39.321000	70.874889	51.457111	51.457111
447.461819	116.263944	28.883944	28.883944	22.815889	58.010611	58.010611
447.824926	17.476000	45.389056	45.389056	64.806833	33.252944	33.252944
448.187994	88.108167	40.777333	40.777333	14.077889	9.223444	9.223444
448.551023	107.768667	56.797000	56.797000	95.632556	42.233667	42.233667
448.914014	106.797778	20.631389	20.631389	110.438611	53.398889	53.398889
449.276966	67.719500	48.301722	48.301722	-9.951611	36.165611	36.165611
449.639880	26.456722	49.515333	49.515333	54.369778	84.710056	84.710056
450.002754	53.641611	82.768278	82.768278	93.690778	79.127444	79.127444
450.365590	58.738778	33.252944	33.252944	12.621556	49.029889	49.029889
450.728388	50.728944	60.437833	60.437833	54.369778	53.156167	53.156167
451.091146	78.642000	37.379222	37.379222	-5.097167	-23.301333	-23.301333
451.453866	106.797778	95.875278	95.875278	108.011389	92.234444	92.234444
451.816547	48.301722	78.642000	78.642000	84.710056	65.292278	65.292278
452.179189	31.553889	19.417778	19.417778	21.845000	66.748611	66.748611
452.541793	107.040500	39.078278	39.078278	22.087722	86.409111	86.409111
452.904357	15.776944	36.408333	36.408333	47.330833	49.758056	49.758056
453.266883	80.583778	89.079056	89.079056	167.963778	49.029889	49.029889
453.629370	57.282444	63.350500	63.350500	69.418556	29.369389	29.369389
453.991818	-7.038944	-14.320611	-14.320611	7.524389	2.669944	2.669944
454.354227	70.389444	106.797778	106.797778	32.767500	41.262778	41.262778
454.716597	145.147889	100.244278	100.244278	96.603444	77.185667	77.185667
455.078929	123.788333	69.175833	69.175833	81.311944	52.185278	52.185278
455.441221	83.011000	62.379611	62.379611	53.884333	98.787944	98.787944
455.803475	52.670722	98.787944	98.787944	47.816278	96.360722	96.360722
456.165689	50.728944	61.651444	61.651444	24.029500	33.738389	33.738389
456.527865	90.535389	108.739556	108.739556	27.427611	54.127056	54.127056
456.890001	103.399667	65.777722	65.777722	80.341056	137.380778	137.380778
457.252099	33.738389	45.874500	45.874500	51.942556	101.700611	101.700611
457.614157	54.855222	60.923278	60.923278	47.573556	51.214389	51.214389
457.976177	54.855222	128.885500	128.885500	63.350500	126.458278	126.458278
458.338157	129.613667	64.078667	64.078667	58.010611	89.564500	89.564500
458.700099	57.282444	74.273000	74.273000	83.981889	94.904389	94.904389
459.062001	100.487000	83.496444	83.496444	117.477556	96.846167	96.846167
459.423864	176.216333	150.730500	150.730500	202.915778	194.420500	194.420500
459.785688	113.836722	77.428389	77.428389	122.332000	113.836722	113.836722
460.147473	42.961833	22.330444	22.330444	68.447667	-5.582611	-5.582611
460.509219	65.777722	115.535778	115.535778	143.448833	96.118000	96.118000
460.870926	45.874500	37.379222	37.379222	51.942556	16.747833	16.747833
461.232593	88.108167	-8.980722	-8.980722	12.864278	8.009833	8.009833
461.594221	77.185667	34.709278	34.709278	83.253722	50.486222	50.486222
461.955810	103.885111	41.990944	41.990944	39.563722	112.380389	112.380389
462.317360	54.127056	90.535389	90.535389	62.622333	63.835944	63.835944
462.678871	96.846167	118.691167	118.691167	140.536167	98.059778	98.059778
463.040342	84.224611	101.215167	101.215167	97.574333	38.107389	38.107389
463.401775	26.699444	129.856389	129.856389	35.194722	69.175833	69.175833
463.763167	14.806056	54.855222	54.855222	30.583000	-15.534222	-15.534222
464.124521	-5.825333	1.456333	1.456333	56.068833	6.310778	6.310778
464.485835	131.070000	123.788333	123.788333	138.351667	92.234444	92.234444
464.847110	55.097944	101.215167	101.215167	92.719889	81.797389	81.797389
465.208346	49.029889	62.379611	62.379611	-0.728167	79.370167	79.370167
465.569542	71.117611	107.525944	107.525944	96.603444	45.631778	45.631778
465.930699	62.865056	45.874500	45.874500	79.855611	39.806444	39.806444
466.291817	39.078278	51.214389	51.214389	63.350500	26.942167	26.942167
466.652895	31.311167	62.865056	62.865056	62.865056	96.846167	96.846167
467.013933	117.234833	130.584556	130.584556	49.272611	101.457889	101.457889
467.374933	40.049167	118.933889	118.933889	78.884722	115.293056	115.293056
467.735892	56.797000	82.282833	82.282833	54.369778	9.466167	9.466167
468.096813	152.672278	158.740333	158.740333	93.205333	136.895333	136.895333
468.457694	68.933111	89.564500	89.564500	51.942556	38.592833	38.592833
468.818535	130.584556	116.021222	116.021222	105.098722	79.612889	79.612889
469.179337	-4.611722	91.263556	91.263556	62.136889	24.514944	24.514944
469.540099	84.467333	85.680944	85.680944	105.098722	141.507056	141.507056
469.900822	58.010611	94.418944	94.418944	56.797000	73.787556	73.787556
470.261506	64.806833	97.574333	97.574333	55.097944	85.438222	85.438222
470.622149	84.467333	92.962611	92.962611	60.195111	78.399278	78.399278
470.982753	21.845000	-3.640833	-3.640833	43.690000	65.535000	65.535000
471.343318	114.079444	106.797778	106.797778	143.206111	127.429167	127.429167
471.703843	-18.932333	1.699056	1.699056	25.971278	5.339889	5.339889
472.064328	109.467722	102.186056	102.186056	98.545222	83.981889	83.981889
472.424774	69.175833	18.204167	18.204167	75.243889	89.807222	89.807222
472.785180	111.652222	29.126667	29.126667	31.553889	37.621944	37.621944
473.145546	37.379222	30.097556	30.097556	-6.310778	39.806444	39.806444
473.505873	90.778111	41.020056	41.020056	111.409500	104.127833	104.127833
473.866160	-8.252556	-5.825333	-5.825333	31.796611	41.505500	41.505500
474.226407	55.826111	19.417778	19.417778	77.671111	72.816667	72.816667
474.586615	48.059000	78.399278	78.399278	80.826500	67.476778	67.476778
474.946783	64.806833	28.398500	28.398500	107.283222	66.020444	66.020444
475.306911	68.933111	31.311167	31.311167	94.418944	44.660889	44.660889
475.666999	59.952389	21.116833	21.116833	21.116833	22.330444	22.330444
476.027047	-5.825333	19.660500	19.660500	24.514944	65.777722	65.777722
476.387056	50.486222	50.486222	50.486222	71.117611	41.990944	41.990944
476.747025	115.535778	73.059389	73.059389	19.660500	77.913833	77.913833
477.106954	63.593222	62.379611	62.379611	12.621556	95.147111	95.147111
477.466843	111.894944	114.322167	114.322167	185.925222	63.350500	63.350500
477.826692	141.992500	169.905556	169.905556	132.283611	93.448056	93.448056
478.186502	105.098722	85.680944	85.680944	112.380389	117.234833	117.234833
478.546271	5.097167	7.524389	7.524389	-2.184500	50.000778	50.000778
478.906001	51.942556	76.214778	76.214778	58.010611	104.127833	104.127833
479.265690	66.748611	86.166389	86.166389	13.349722	49.758056	49.758056
479.625340	103.642389	80.583778	80.583778	91.506278	92.719889	92.719889
479.984950	-18.689611	5.582611	5.582611	63.835944	-23.544056	-23.544056
480.344519	73.787556	91.991722	91.991722	96.846167	77.428389	77.428389
480.704049	67.476778	26.214000	26.214000	97.817056	48.059000	48.059000
481.063539	0.728167	20.145944	20.145944	-4.126278	71.117611	71.117611
481.422989	84.952778	116.506667	116.506667	128.642778	86.166389	86.166389
481.782398	57.767889	123.302889	123.302889	66.263167	124.516500	124.516500
482.141768	119.904778	138.108944	138.108944	73.787556	79.855611	79.855611
482.501098	59.466944	41.262778	41.262778	36.408333	23.058611	23.058611
482.860387	49.272611	48.059000	48.059000	46.845389	40.777333	40.777333
483.219637	29.612111	59.952389	59.952389	-3.155389	92.719889	92.719889
483.578846	7.524389	41.505500	41.505500	35.437444	-13.107000	-13.107000
483.938015	123.060167	102.428778	102.428778	46.602667	97.574333	97.574333
484.297144	25.485833	114.079444	114.079444	-4.854444	55.826111	55.826111
484.656233	66.991333	59.709667	59.709667	40.291889	132.526333	132.526333
485.015282	8.495278	26.699444	26.699444	54.612500	69.175833	69.175833
485.374291	24.272222	72.816667	72.816667	75.243889	64.321389	64.321389
485.733259	133.254500	59.224222	59.224222	58.010611	105.341444	105.341444
486.092187	40.777333	96.603444	96.603444	102.671500	68.690389	68.690389
486.451075	78.156556	79.370167	79.370167	66.020444	89.079056	89.079056
486.809923	136.409889	62.379611	62.379611	113.351278	45.389056	45.389056
487.168730	110.438611	57.039722	57.039722	23.058611	30.340278	30.340278
487.527497	73.787556	119.904778	119.904778	99.273389	138.108944	138.108944
487.886224	67.962222	42.476389	42.476389	-2.427222	80.098333	80.098333
488.244910	9.466167	49.515333	49.515333	99.273389	82.282833	82.282833
488.603557	89.321778	107.525944	107.525944	55.340667	108.739556	108.739556
488.962162	102.671500	146.361500	146.361500	49.272611	101.457889	101.457889
489.320728	42.719111	3.883556	3.883556	80.341056	29.369389	29.369389
489.679253	113.836722	95.632556	95.632556	85.923667	66.505889	66.505889
490.037738	66.991333	74.273000	74.273000	76.700222	104.613278	104.613278
490.396182	121.846556	119.419333	119.419333	107.283222	129.128222	129.128222
490.754586	39.078278	82.768278	82.768278	56.068833	69.418556	69.418556
491.112950	71.117611	56.554278	56.554278	96.603444	91.749000	91.749000
491.471273	27.184889	116.992111	116.992111	42.961833	76.942944	76.942944
491.829555	104.127833	77.428389	77.428389	87.137278	99.273389	99.273389
492.187798	31.311167	24.029500	24.029500	100.487000	60.437833	60.437833
492.545999	13.592444	60.923278	60.923278	45.146333	85.195500	85.195500
492.904160	58.010611	88.350889	88.350889	67.719500	48.301722	48.301722
493.262281	58.496056	37.864667	37.864667	24.514944	34.223833	34.223833
493.620361	80.341056	81.554667	81.554667	64.564111	105.826889	105.826889
493.978401	80.826500	88.108167	88.108167	37.136500	80.826500	80.826500
494.336400	106.797778	78.884722	78.884722	121.361111	71.603056	71.603056
494.694358	58.496056	35.437444	35.437444	65.777722	28.155778	28.155778
495.052276	28.155778	26.942167	26.942167	25.728556	13.592444	13.592444
495.410153	56.311556	52.670722	52.670722	76.942944	27.184889	27.184889
495.767990	66.748611	87.380000	87.380000	92.234444	91.020833	91.020833
496.125786	51.699833	34.709278	34.709278	56.554278	61.408722	61.408722
496.483541	134.225389	90.535389	90.535389	136.652611	111.166778	111.166778
496.841255	70.146722	89.564500	89.564500	105.341444	72.573944	72.573944
497.198929	59.952389	41.748222	41.748222	120.632944	100.001556	100.001556
497.556563	74.030278	105.584167	105.584167	91.020833	77.671111	77.671111
497.914155	81.069222	83.496444	83.496444	7.038944	26.456722	26.456722
498.271707	102.186056	83.981889	83.981889	100.972444	119.176611	119.176611
498.629218	62.136889	64.564111	64.564111	26.942167	36.651056	36.651056
498.986688	125.972833	127.186444	127.186444	135.681722	87.137278	87.137278
499.344118	125.001944	86.166389	86.166389	72.816667	95.875278	95.875278
499.701506	35.437444	76.700222	76.700222	43.932722	29.369389	29.369389
500.058854	21.602278	82.282833	82.282833	64.078667	68.933111	68.933111
500.416161	165.293833	122.817444	122.817444	131.312722	164.080222	164.080222
500.773428	122.817444	119.176611	119.176611	102.186056	116.749389	116.749389
501.130653	22.815889	30.097556	30.097556	39.806444	55.583389	55.583389
501.487837	91.991722	44.660889	44.660889	71.360333	50.728944	50.728944
501.844981	112.380389	99.030667	99.030667	114.807611	95.389833	95.389833
502.202084	54.127056	57.767889	57.767889	44.418167	61.408722	61.408722
502.559146	115.293056	75.243889	75.243889	133.497222	117.720278	117.720278
502.916167	96.118000	97.331611	97.331611	62.136889	116.749389	116.749389
503.273146	80.826500	82.040111	82.040111	129.370944	113.594000	113.594000
503.630085	71.603056	66.748611	66.748611	82.525556	27.913056	27.913056
503.986984	70.874889	61.166000	61.166000	21.116833	75.729333	75.729333
504.343841	52.670722	59.952389	59.952389	19.903222	75.729333	75.729333
504.700657	140.536167	124.759222	124.759222	93.205333	83.496444	83.496444
505.057432	117.477556	135.681722	135.681722	152.672278	125.972833	125.972833
505.414166	59.709667	94.904389	94.904389	74.273000	50.000778	50.000778
505.770858	62.622333	75.972056	75.972056	75.972056	105.098722	105.098722
506.127510	46.845389	111.166778	111.166778	72.331222	84.467333	84.467333
506.484121	73.059389	50.000778	50.000778	31.796611	41.505500	41.505500
506.840691	97.088889	25.485833	25.485833	49.758056	57.039722	57.039722
507.197219	-7.767111	17.718722	17.718722	18.932333	41.990944	41.990944
507.553707	-1.941778	34.466556	34.466556	92.719889	69.661278	69.661278
507.910153	13.592444	42.719111	42.719111	48.787167	33.010222	33.010222
508.266558	30.583000	40.291889	40.291889	59.709667	30.583000	30.583000
508.622922	32.767500	58.253333	58.253333	37.621944	58.253333	58.253333
508.979245	105.341444	78.642000	78.642000	94.418944	58.010611	58.010611
509.335527	118.448444	107.525944	107.525944	86.894556	90.535389	90.535389
509.691767	42.719111	82.768278	82.768278	59.709667	48.787167	48.787167
510.047966	-4.854444	24.272222	24.272222	23.058611	40.049167	40.049167
510.404124	62.622333	44.418167	44.418167	52.913444	54.127056	54.127056
510.760241	39.806444	75.001167	75.001167	30.097556	61.651444	61.651444
511.116316	66.991333	63.350500	63.350500	19.660500	60.923278	60.923278
511.472350	98.545222	80.341056	80.341056	33.010222	24.514944	24.514944
511.828343	120.390222	68.204944	68.204944	108.254111	86.409111	86.409111
512.184295	45.631778	74.758444	74.758444	68.690389	62.622333	62.622333
512.540205	113.351278	130.341833	130.341833	64.806833	56.311556	56.311556
512.896073	127.671889	77.913833	77.913833	54.855222	97.331611	97.331611
513.251901	71.845778	70.632167	70.632167	83.981889	58.496056	58.496056
513.607687	72.331222	89.321778	89.321778	61.408722	39.563722	39.563722
513.963431	104.613278	73.059389	73.059389	3.883556	36.651056	36.651056
514.319135	42.719111	105.826889	105.826889	62.136889	39.078278	39.078278
514.674796	97.088889	47.330833	47.330833	40.049167	21.845000	21.845000
515.030417	102.186056	65.777722	65.777722	105.826889	76.700222	76.700222
515.385996	83.496444	102.914222	102.914222	60.437833	77.428389	77.428389
515.741533	126.943722	92.962611	92.962611	119.662056	163.352056	163.352056
516.097029	93.205333	87.137278	87.137278	132.040889	62.865056	62.865056
516.452483	94.176222	12.864278	12.864278	54.127056	54.127056	54.127056
516.807896	62.136889	122.817444	122.817444	83.981889	113.108556	113.108556
517.163268	86.894556	130.584556	130.584556	66.263167	83.253722	83.253722
517.518597	128.642778	65.535000	65.535000	106.797778	66.748611	66.748611
517.873886	43.447278	113.836722	113.836722	38.592833	71.360333	71.360333
518.229132	89.807222	72.816667	72.816667	92.234444	94.661667	94.661667
518.584337	101.457889	102.671500	102.671500	85.680944	105.098722	105.098722
518.939501	112.380389	105.098722	105.098722	106.312333	75.972056	75.972056
519.294623	124.031056	130.099111	130.099111	69.418556	127.671889	127.671889
519.649703	121.846556	86.651833	86.651833	101.215167	79.370167	79.370167
520.004742	72.573944	66.505889	66.505889	25.243111	78.642000	78.642000
520.359738	67.476778	48.059000	48.059000	31.068444	63.835944	63.835944
520.714694	52.185278	47.330833	47.330833	60.680556	95.875278	95.875278
521.069607	66.991333	75.486611	75.486611	69.418556	51.214389	51.214389
521.424479	86.409111	121.603833	121.603833	132.526333	139.808000	139.808000
521.779309	150.973222	125.487389	125.487389	104.856000	101.215167	101.215167
522.134097	95.632556	77.428389	77.428389	58.010611	41.020056	41.020056
522.488844	122.817444	50.000778	50.000778	110.681333	119.176611	119.176611
522.843549	88.593611	78.884722	78.884722	52.185278	112.865833	112.865833
523.198211	106.312333	108.739556	108.739556	67.476778	108.739556	108.739556
523.552833	85.923667	73.787556	73.787556	94.418944	73.787556	73.787556
523.907412	79.370167	157.041278	157.041278	157.041278	115.778500	115.778500
524.261949	82.282833	90.778111	90.778111	54.369778	55.583389	55.583389
524.616445	-12.864278	36.893778	36.893778	56.311556	27.184889	27.184889
524.970899	32.282056	56.554278	56.554278	130.584556	79.612889	79.612889
525.325311	170.148278	216.265500	216.265500	136.167167	233.256056	233.256056
525.679681	98.787944	98.787944	98.787944	93.933500	119.419333	119.419333
526.034009	141.749778	152.672278	152.672278	72.573944	116.263944	116.263944
526.388295	79.127444	83.981889	83.981889	111.894944	41.505500	41.505500
526.742539	61.651444	34.952000	34.952000	47.088111	54.369778	54.369778
527.096742	117.477556	153.885889	153.885889	127.186444	133.254500	133.254500
527.450902	147.089667	69.418556	69.418556	100.972444	87.622722	87.622722
527.805020	44.418167	39.563722	39.563722	89.321778	50.486222	50.486222
528.159096	133.739944	142.235222	142.235222	117.963000	139.808000	139.808000
528.513131	72.331222	37.136500	37.136500	31.068444	82.040111	82.040111
528.867123	69.418556	42.719111	42.719111	23.301333	31.796611	31.796611
529.221073	38.592833	26.456722	26.456722	101.700611	50.728944	50.728944
529.574981	182.527111	120.632944	120.632944	142.477944	106.069611	106.069611
529.928847	106.555056	105.341444	105.341444	135.681722	65.292278	65.292278
530.282671	66.748611	98.302500	98.302500	78.884722	64.321389	64.321389
530.636453	159.225778	105.826889	105.826889	145.876056	119.176611	119.176611
530.990193	206.071167	167.235611	167.235611	118.691167	185.439778	185.439778
531.343891	83.981889	103.399667	103.399667	76.700222	111.894944	111.894944
531.697546	192.236000	157.041278	157.041278	120.632944	119.419333	119.419333
532.051159	125.730111	174.274556	174.274556	196.119556	150.002333	150.002333
532.404730	48.787167	80.341056	80.341056	41.505500	66.991333	66.991333
532.758259	35.922889	57.767889	57.767889	125.730111	100.244278	100.244278
533.111746	91.020833	47.330833	47.330833	110.438611	140.778889	140.778889
533.465190	113.108556	64.564111	64.564111	41.505500	182.284389	182.284389
533.818593	84.467333	61.408722	61.408722	82.040111	82.040111	82.040111
534.171952	125.001944	99.516111	99.516111	57.039722	46.117222	46.117222
534.525270	90.535389	94.176222	94.176222	103.885111	108.739556	108.739556
534.878545	146.118778	140.050722	140.050722	126.701000	152.186833	152.186833
535.231778	101.700611	11.893389	11.893389	55.583389	84.710056	84.710056
535.584969	81.311944	44.903611	44.903611	70.389444	70.389444	70.389444
535.938118	134.225389	160.924833	160.924833	139.079833	145.147889	145.147889
536.291224	88.350889	53.156167	53.156167	132.040889	73.787556	73.787556
536.644287	98.302500	59.466944	59.466944	81.311944	41.262778	41.262778
536.997309	101.943333	64.321389	64.321389	46.117222	122.574722	122.574722
537.350288	54.855222	88.836333	88.836333	39.078278	37.864667	37.864667
537.703224	93.690778	114.322167	114.322167	93.690778	73.059389	73.059389
538.056118	112.623111	159.953944	159.953944	123.545611	112.623111	112.623111
538.408970	141.507056	174.274556	174.274556	90.535389	182.769833	182.769833
538.761779	68.690389	84.467333	84.467333	69.904000	48.059000	48.059000
539.114546	98.302500	89.807222	89.807222	109.225000	89.807222	89.807222
539.467270	64.078667	111.409500	111.409500	45.874500	78.642000	78.642000
539.819951	137.623500	106.069611	106.069611	118.205722	131.555444	131.555444
540.172591	175.730889	202.430333	202.430333	185.439778	163.594778	163.594778
540.525187	65.292278	78.642000	78.642000	87.137278	118.691167	118.691167
540.877741	67.234056	67.234056	67.234056	78.156556	33.252944	33.252944
541.230253	174.760000	183.255278	183.255278	160.196667	137.138056	137.138056
541.582722	112.137667	86.651833	86.651833	182.527111	78.156556	78.156556
541.935148	111.409500	157.526722	157.526722	139.322556	58.010611	58.010611
542.287532	188.109722	110.438611	110.438611	109.225000	120.147500	120.147500
542.639873	148.546000	121.846556	121.846556	152.186833	106.069611	106.069611
542.992172	135.681722	155.099500	155.099500	159.953944	104.127833	104.127833
543.344427	172.332778	168.691944	168.691944	239.081389	158.983056	158.983056
543.696641	143.448833	131.312722	131.312722	126.458278	103.399667	103.399667
544.048811	168.691944	166.264722	166.264722	115.293056	118.933889	118.933889
544.400939	222.819000	234.955111	234.955111	158.497611	198.546778	198.546778
544.753024	150.487778	118.933889	118.933889	145.633333	180.828056	180.828056
545.105066	196.605000	154.128611	154.128611	115.293056	155.342222	155.342222
545.457066	121.361111	195.391389	195.391389	140.778889	140.778889	140.778889
545.809023	178.158111	225.488944	225.488944	163.594778	141.749778	141.749778
546.160937	139.322556	166.022000	166.022000	84.710056	105.341444	105.341444
546.512808	40.049167	89.807222	89.807222	143.206111	86.166389	86.166389
546.864636	149.759611	149.759611	149.759611	121.846556	75.729333	75.729333
547.216422	184.954333	136.409889	136.409889	172.818222	107.283222	107.283222
547.568165	184.711611	216.265500	216.265500	189.566056	147.089667	147.089667
547.919865	173.546389	184.468889	184.468889	158.983056	131.070000	131.070000
548.271522	215.051889	213.838278	213.838278	191.993278	191.993278	191.993278
548.623136	156.313111	98.059778	98.059778	117.477556	98.059778	98.059778
548.974707	129.856389	156.555833	156.555833	208.741111	148.060556	148.060556
549.326236	184.954333	161.895722	161.895722	163.109333	184.954333	184.954333
549.677721	212.139222	173.303667	173.303667	187.867000	145.390611	145.390611
550.029164	200.245833	169.905556	169.905556	168.691944	120.147500	120.147500
550.380563	164.080222	175.002722	175.002722	168.934667	134.953556	134.953556
550.731920	184.226167	186.653389	186.653389	183.012556	138.108944	138.108944
551.083233	170.148278	119.176611	119.176611	167.721056	151.944111	151.944111
551.434504	264.324500	124.759222	124.759222	168.449222	155.099500	155.099500
551.785731	245.634889	165.536556	165.536556	184.954333	160.682111	160.682111
552.136916	194.177778	189.323333	189.323333	152.915000	183.255278	183.255278
552.488057	290.295778	251.460222	251.460222	246.605778	276.946056	276.946056
552.839156	255.829222	198.789500	198.789500	253.402000	210.925611	210.925611
553.190211	245.149444	256.071944	256.071944	226.945278	202.673056	202.673056
553.541223	222.090833	223.304444	223.304444	233.013333	196.605000	196.605000
553.892193	357.044389	302.431889	302.431889	318.208833	296.363833	296.363833
554.243119	321.606944	309.470833	309.470833	291.266667	286.412222	286.412222
554.594002	342.238333	311.898056	311.898056	292.480278	314.325278	314.325278
554.944841	293.451167	287.383111	287.383111	323.791444	312.868944	312.868944
555.295638	333.257611	347.820944	347.820944	356.316222	334.471222	334.471222
555.646391	285.441333	276.946056	276.946056	314.568000	262.382722	262.382722
555.997101	424.763889	303.402778	303.402778	336.170278	360.442500	360.442500
556.347768	346.850056	348.063667	348.063667	394.180889	357.772556	357.772556
556.698392	394.423611	385.928333	385.928333	343.451944	348.306389	348.306389
557.048972	460.929500	462.143111	462.143111	433.016444	434.230056	434.230056
557.399510	513.842944	490.784333	490.784333	470.152944	465.298500	465.298500
557.750004	676.224111	565.785500	565.785500	614.329944	585.203278	585.203278
558.100454	652.680056	551.950333	551.950333	515.542000	568.940889	568.940889
558.450862	660.204444	609.232778	609.232778	673.554167	675.981389	675.981389
558.801226	786.905444	768.701278	768.701278	703.166278	723.797667	723.797667
559.151546	898.314944	829.139111	829.139111	854.624944	880.110778	880.110778
559.501824	1118.464000	961.908167	961.908167	959.480944	927.927056	927.927056
559.852058	1215.552889	1123.318444	1123.318444	1128.172889	1099.046222	1099.046222
560.202248	1533.033556	1381.332167	1381.332167	1376.477722	1401.963556	1401.963556
560.552395	1712.890722	1566.043778	1566.043778	1664.346278	1709.249889	1709.249889
560.902499	2101.246278	1859.737667	1859.737667	1903.427667	1901.000444	1901.000444
561.252560	2578.438167	2239.840667	2239.840667	2266.540111	2278.676222	2278.676222
561.602576	2975.046278	2671.643500	2671.643500	2833.053778	2637.662389	2637.662389
561.952550	3619.716500	3174.321222	3174.321222	3279.905389	3236.215389	3236.215389
562.302480	4119.724278	3732.582333	3732.582333	3732.582333	3775.058722	3775.058722
562.652366	5020.709167	4455.166389	4455.166389	4671.189167	4497.642778	4497.642778
563.002209	5735.768833	5161.730778	5161.730778	5337.704389	5169.012444	5169.012444
563.352009	6612.238778	6121.939889	6121.939889	6367.089333	6010.287667	6010.287667
563.701765	7869.539889	6944.768222	6944.768222	7337.978222	7114.673778	7114.673778
564.051477	9130.239111	8129.009944	8129.009944	8644.794667	8156.923000	8156.923000
564.401146	10222.246389	9333.883056	9333.883056	9802.336944	9214.949167	9214.949167
564.750771	11967.904611	11006.724611	11006.724611	11420.566000	10637.786833	10637.786833
565.100353	13762.835444	12482.475722	12482.475722	13364.771000	12153.587111	12153.587111
565.449891	15495.872111	13976.431000	13976.431000	15029.845444	13740.990444	13740.990444
565.799385	17785.470833	16124.037222	16124.037222	16892.253056	15483.250556	15483.250556
566.148836	19666.082611	18183.049833	18183.049833	19243.745944	17317.745111	17317.745111
566.498243	21766.600722	20050.554611	20050.554611	21137.950167	18966.799889	18966.799889
566.847607	24074.403611	22332.871667	22332.871667	23198.176389	20823.139444	20823.139444
567.196927	26124.435500	24530.964111	24530.964111	25091.652444	22607.390500	22607.390500
567.546203	28131.748278	26744.590778	26744.590778	27199.694944	24199.648278	24199.648278
567.895435	30271.344667	28782.243833	28782.243833	29147.540778	25995.792722	25995.792722
568.244624	32003.167722	30853.878000	30853.878000	31024.997167	27370.814111	27370.814111
568.593768	33552.949111	32438.854111	32438.854111	32032.294389	28749.476333	28749.476333
568.942870	35028.700222	33958.295222	33958.295222	33393.966056	29469.147722	29469.147722
569.291927	35741.332667	34732.821833	34732.821833	33926.984056	29871.095722	29871.095722
569.640940	36157.844000	35359.287889	35359.287889	34549.809278	29907.746778	29907.746778
569.989910	35871.674500	34954.184500	34954.184500	34273.348667	29630.072556	29630.072556
570.338836	35739.876333	34821.172722	34821.172722	33863.633556	29602.644944	29602.644944
570.687718	34731.850944	33739.117056	33739.117056	32606.817889	28390.732889	28390.732889
571.036557	33416.539222	32331.570889	32331.570889	31240.534500	27464.990333	27464.990333
571.385351	31637.628056	30478.629444	30478.629444	29539.294444	26006.472500	26006.472500
571.734101	29720.122500	28683.698611	28683.698611	27949.463889	24730.967222	24730.967222
572.082808	28124.466611	26624.443278	26624.443278	26055.259667	22938.706333	22938.706333
572.431471	26758.911389	24863.250833	24863.250833	24386.301667	21916.603056	21916.603056
572.780089	24268.581389	22970.017500	22970.017500	22618.070278	20437.211111	20437.211111
573.128664	22778.509667	21176.543000	21176.543000	20834.304667	19010.247167	19010.247167
573.477195	20706.390056	19518.264778	19518.264778	19051.024500	17524.301722	17524.301722
573.825682	19008.062667	17937.657667	17937.657667	17464.349333	16170.639889	16170.639889
574.174125	17714.838667	16185.688667	16185.688667	16127.435333	14955.087000	14955.087000
574.522524	15991.510889	14865.279778	14865.279778	14758.482000	13837.351167	13837.351167
574.870879	14527.895889	13370.110889	13370.110889	13396.810333	12655.293944	12655.293944
575.219189	13396.567611	12141.693722	12141.693722	12243.637056	11622.268167	11622.268167
575.567456	12074.702389	10903.567667	10903.567667	11169.348500	10438.754611	10438.754611
575.915679	10871.285611	9975.640611	9975.640611	9968.358944	9817.871167	9817.871167
576.263858	9658.402667	9029.752111	9029.752111	9006.693500	8664.455167	8664.455167
576.611992	8691.640056	8019.299500	8019.299500	8112.747556	7998.668111	7998.668111
576.960083	7847.452167	7175.111611	7175.111611	7400.843278	7194.529389	7194.529389
577.308129	7158.121056	6530.684111	6530.684111	6692.094389	6533.111333	6533.111333
577.656131	6367.089333	5738.438778	5738.438778	5869.508778	5816.109889	5816.109889
578.004089	5628.000167	5318.529333	5318.529333	5333.092667	5293.043500	5293.043500
578.352003	5009.543944	4708.568389	4708.568389	4721.918111	4764.394500	4764.394500
578.699873	4520.215944	4159.773444	4159.773444	4298.125111	4347.883167	4347.883167
579.047698	4040.354111	3837.681056	3837.681056	3838.894667	3891.079944	3891.079944
579.395479	3576.754667	3355.877444	3355.877444	3486.947444	3406.849111	3406.849111
579.743217	3276.750000	3072.863333	3072.863333	3157.816111	3233.060000	3233.060000
580.090909	2989.609611	2843.976278	2843.976278	2817.276833	2898.588778	2898.588778
580.438558	2710.236333	2567.030222	2567.030222	2608.293000	2630.138000	2630.138000
580.786162	2478.193889	2320.424444	2320.424444	2337.415000	2415.086111	2415.086111
581.133722	2154.887889	2083.284833	2083.284833	2100.275389	2157.315111	2157.315111
581.481238	1964.108222	1909.495722	1909.495722	1898.573222	1920.418222	1920.418222
581.828709	1866.776611	1751.483556	1751.483556	1790.319111	1785.464667	1785.464667
582.176136	1731.823056	1683.278611	1683.278611	1631.093333	1708.764444	1708.764444
582.523519	1505.363222	1471.382111	1471.382111	1598.811278	1541.771556	1541.771556
582.870857	1518.470222	1474.780222	1474.780222	1560.946611	1545.169667	1545.169667
583.218151	1407.546167	1331.088667	1331.088667	1351.720056	1379.633111	1379.633111
583.565400	1315.554444	1305.845556	1305.845556	1279.146111	1264.582778	1264.582778
583.912605	1158.270444	1155.843222	1155.843222	1226.232667	1209.242111	1209.242111
584.259766	1184.969889	1119.434889	1119.434889	1182.542667	1146.134333	1146.134333
584.606882	1049.288167	1060.210667	1060.210667	1109.968722	1141.522611	1141.522611
584.953954	1058.268889	1026.715000	1026.715000	1065.550556	958.752778	958.752778
585.300981	975.257889	1000.743722	1000.743722	960.694556	1008.025389	1008.025389
585.647964	986.180389	974.044278	974.044278	1000.743722	1008.025389	1008.025389
585.994902	895.645000	908.994722	908.994722	898.072222	959.966389	959.966389
586.341796	854.382222	871.372778	871.372778	923.558056	877.440833	877.440833
586.688646	924.771667	912.635556	912.635556	870.159167	908.994722	908.994722
587.035450	824.284667	837.634389	837.634389	848.556889	798.798833	798.798833
587.382210	780.351944	807.051389	807.051389	762.147778	754.866111	754.866111
587.728926	743.943611	781.565556	781.565556	745.157222	808.265000	808.265000
588.075597	738.118278	736.904667	736.904667	795.158000	710.205222	710.205222
588.422223	653.650944	697.340944	697.340944	667.000667	651.223722	651.223722
588.768805	730.836611	719.914111	719.914111	689.573833	746.613556	746.613556
589.115342	673.068722	734.962889	734.962889	652.437333	681.564000	681.564000
589.461835	595.397611	675.495944	675.495944	622.097056	613.601778	613.601778
589.808282	698.311833	699.525444	699.525444	738.361000	681.321278	681.321278
590.154685	713.603333	684.476667	684.476667	671.126944	671.126944	671.126944
590.501044	594.669444	538.843333	538.843333	557.047500	635.932222	635.932222
590.847357	604.621056	562.144667	562.144667	591.271333	565.785500	565.785500
591.193626	478.405500	528.163556	528.163556	579.135222	576.708000	576.708000
591.539851	617.970778	634.961333	634.961333	569.426333	597.339389	597.339389
591.886030	549.523111	502.192278	502.192278	562.872833	511.901167	511.901167
592.232165	546.853167	495.881500	495.881500	498.308722	566.270944	566.270944
592.578255	504.376778	497.095111	497.095111	522.580944	528.649000	528.649000
592.924300	571.368111	565.300056	565.300056	545.882278	517.969222	517.969222
593.270300	564.571889	617.970778	617.970778	566.999111	579.135222	579.135222
593.616255	459.230444	501.706833	501.706833	467.725722	443.453500	443.453500
593.962166	469.910222	537.872444	537.872444	478.405500	488.114389	488.114389
594.308032	497.095111	493.454278	493.454278	441.269000	390.297333	390.297333
594.653852	527.192667	493.211556	493.211556	542.969611	535.687944	535.687944
594.999628	514.328389	500.978667	500.978667	504.619500	494.910611	494.910611
595.345359	479.376389	463.599444	463.599444	478.162778	436.900000	436.900000
595.691045	438.841778	495.881500	495.881500	460.686778	441.269000	441.269000
596.036686	416.996778	390.297333	390.297333	459.473167	431.560111	431.560111
596.382283	458.016833	420.394889	420.394889	414.326833	454.376000	454.376000
596.727834	459.715889	471.852000	471.852000	451.220611	456.075056	456.075056
597.073340	444.909833	444.909833	444.909833	478.890944	455.832333	455.832333
597.418801	497.095111	432.773722	432.773722	412.142333	493.454278	493.454278
597.764217	445.880722	467.725722	467.725722	436.171833	436.171833	436.171833
598.109589	381.802056	390.297333	390.297333	414.569556	426.705667	426.705667
598.454915	353.403556	409.229667	409.229667	404.375222	360.685222	360.685222
598.800196	358.986167	351.704500	351.704500	351.704500	363.840611	363.840611
599.145432	404.375222	389.811889	389.811889	399.520778	431.074667	431.074667
599.490623	342.966500	375.734000	375.734000	379.374833	311.412611	311.412611
599.835768	377.433056	356.801667	356.801667	385.928333	360.442500	360.442500
600.180869	404.617944	394.909056	394.909056	326.946833	402.190722	402.190722
600.525925	340.296556	422.822111	422.822111	411.899611	403.404333	403.404333
600.870935	428.890167	386.413778	386.413778	347.578222	379.132111	379.132111
601.215900	346.364611	336.655722	336.655722	313.597111	324.519611	324.519611
601.560820	305.344556	319.907889	319.907889	385.442889	385.442889	385.442889
601.905695	357.772556	395.394500	395.394500	405.103389	408.744222	408.744222
602.250525	315.538889	332.529444	332.529444	353.160833	330.102222	330.102222
602.595309	344.422833	357.772556	357.772556	320.150611	264.324500	264.324500
602.940048	286.897667	319.665167	319.665167	342.723778	318.451556	318.451556
603.284742	343.451944	399.278056	399.278056	309.470833	375.005833	375.005833
603.629390	281.800500	333.985778	333.985778	252.673833	289.082167	289.082167
603.973994	363.597889	342.966500	342.966500	334.471222	288.354000	288.354000
604.318552	273.062500	287.625833	287.625833	365.296944	296.121111	296.121111
604.663064	313.354389	302.431889	302.431889	326.704111	274.518833	274.518833
605.007532	349.034556	270.149833	270.149833	308.985389	341.752889	341.752889
605.351954	399.520778	391.025500	391.025500	399.520778	399.520778	399.520778
605.696330	392.967278	350.490889	350.490889	348.063667	350.490889	350.490889
606.040661	234.226944	240.295000	240.295000	243.935833	222.090833	222.090833
606.384947	243.207667	267.479889	267.479889	252.916556	232.285167	232.285167
606.729188	306.558167	300.490111	300.490111	283.499556	366.025111	366.025111
607.073383	286.897667	352.432667	352.432667	350.005444	324.519611	324.519611
607.417532	262.140000	230.586111	230.586111	219.663611	256.071944	256.071944
607.761636	246.363056	259.712778	259.712778	196.605000	194.177778	194.177778
608.105695	313.597111	311.169889	311.169889	263.839056	261.411833	261.411833
608.449708	283.742278	306.800889	306.800889	309.228111	280.101444	280.101444
608.793676	279.130556	285.198611	285.198611	219.663611	283.985000	283.985000
609.137598	322.820556	252.431111	252.431111	186.896111	269.421667	269.421667
609.481474	244.906722	235.197833	235.197833	261.897278	218.207278	218.207278
609.825305	259.227333	271.363444	271.363444	249.518444	250.732056	250.732056
610.169091	257.528278	315.781611	315.781611	286.654944	273.305222	273.305222
610.512831	224.760778	230.828833	230.828833	213.838278	242.964944	242.964944
610.856525	323.063278	278.159667	278.159667	320.636056	286.654944	286.654944
611.200174	237.382333	301.703722	301.703722	247.091222	244.664000	244.664000
611.543777	276.703333	304.616389	304.616389	332.529444	287.625833	287.625833
611.887334	260.926389	212.381944	212.381944	224.518056	253.644722	253.644722
612.230846	204.614833	194.905944	194.905944	188.837889	231.314278	231.314278
612.574312	261.169111	218.692722	218.692722	247.819389	250.246611	250.246611
612.917733	233.984222	310.441722	310.441722	266.751722	241.265889	241.265889
613.261107	224.032611	199.760389	199.760389	199.760389	191.265111	191.265111
613.604436	147.332389	163.109333	163.109333	201.944889	199.517667	199.517667
613.947720	232.770611	237.625056	237.625056	238.838667	183.012556	183.012556
614.290957	265.538111	271.606167	271.606167	254.615611	288.596722	288.596722
614.634149	226.459833	236.168722	236.168722	230.100667	215.537333	215.537333
614.977295	265.538111	322.577833	322.577833	261.897278	259.470056	259.470056
615.320395	204.857556	216.993667	216.993667	216.993667	241.265889	241.265889
615.663450	211.168333	236.654167	236.654167	135.924444	205.100278	205.100278
616.006458	337.869333	306.315444	306.315444	289.324889	342.723778	342.723778
616.349421	225.246222	260.440944	260.440944	298.062889	241.023167	241.023167
616.692338	296.606556	238.353222	238.353222	290.538500	245.634889	245.634889
617.035209	243.935833	269.421667	269.421667	223.304444	192.964167	192.964167
617.378034	177.672667	222.576278	222.576278	167.963778	203.158500	203.158500
617.720813	131.070000	231.799722	231.799722	231.799722	224.518056	224.518056
618.063546	252.673833	264.809944	264.809944	268.450778	215.051889	215.051889
618.406234	230.586111	213.595556	213.595556	236.654167	233.013333	233.013333
618.748875	185.925222	267.237167	267.237167	213.838278	222.333556	222.333556
619.091471	214.323722	208.255667	208.255667	214.323722	187.624278	187.624278
619.434020	193.935056	233.984222	233.984222	249.761167	223.061722	223.061722
619.776524	175.002722	183.498000	183.498000	172.575500	177.429944	177.429944
620.118982	153.400444	169.177389	169.177389	181.313500	198.304056	198.304056
620.461393	220.391778	173.060944	173.060944	156.070389	197.333167	197.333167
620.803759	195.634111	156.798556	156.798556	164.080222	176.216333	176.216333
621.146078	251.460222	208.983833	208.983833	235.683278	200.488556	200.488556
621.488351	170.148278	149.516889	149.516889	176.216333	206.556611	206.556611
621.830579	204.857556	214.566444	214.566444	183.012556	164.808389	164.808389
622.172760	213.110111	196.119556	196.119556	226.459833	187.624278	187.624278
622.514895	159.953944	186.653389	186.653389	212.139222	180.585333	180.585333
622.856984	198.789500	156.313111	156.313111	169.662833	189.080611	189.080611
623.199027	207.527500	205.100278	205.100278	214.809167	203.886667	203.886667
623.541024	178.158111	138.108944	138.108944	153.885889	116.263944	116.263944
623.882974	209.954722	208.741111	208.741111	260.926389	250.003889	250.003889
624.224878	147.817833	237.625056	237.625056	237.625056	200.003111	200.003111
624.566737	150.730500	210.197444	210.197444	121.603833	103.399667	103.399667
624.908549	168.691944	211.168333	211.168333	169.905556	148.060556	148.060556
625.250314	150.487778	185.682500	185.682500	166.264722	146.846944	146.846944
625.592034	87.622722	94.904389	94.904389	98.545222	153.157722	153.157722
625.933707	174.274556	170.633722	170.633722	146.361500	185.197056	185.197056
626.275334	188.595167	222.576278	222.576278	174.031833	155.827667	155.827667
626.616914	153.400444	132.769056	132.769056	118.205722	118.205722	118.205722
626.958449	208.983833	185.925222	185.925222	202.915778	233.256056	233.256056
627.299937	192.721444	180.585333	180.585333	175.730889	163.594778	163.594778
627.641378	219.420889	170.876444	170.876444	167.235611	122.332000	122.332000
627.982774	104.127833	187.867000	187.867000	106.555056	163.594778	163.594778
628.324123	206.071167	170.876444	170.876444	227.916167	149.031444	149.031444
628.665425	102.186056	136.167167	136.167167	154.371333	130.099111	130.099111
629.006681	138.594389	149.516889	149.516889	130.099111	133.739944	133.739944
629.347891	160.682111	149.759611	149.759611	152.186833	182.527111	182.527111
629.689055	169.662833	123.545611	123.545611	139.322556	139.322556	139.322556
630.030171	120.147500	129.856389	129.856389	177.187222	212.381944	212.381944
630.371242	133.739944	126.458278	126.458278	134.953556	189.566056	189.566056
630.712266	166.750167	155.827667	155.827667	148.546000	160.682111	160.682111
631.053243	143.934278	111.166778	111.166778	157.284000	168.206500	168.206500
631.394174	130.827278	149.031444	149.031444	166.022000	193.935056	193.935056
631.735059	175.002722	184.711611	184.711611	111.894944	125.244667	125.244667
632.075897	154.856778	190.051500	190.051500	204.614833	180.342611	180.342611
632.416688	79.127444	103.399667	103.399667	130.099111	149.516889	149.516889
632.757433	113.351278	149.759611	149.759611	172.818222	79.370167	79.370167
633.098131	85.438222	184.954333	184.954333	67.234056	95.147111	95.147111
633.438783	134.710833	169.905556	169.905556	182.041667	126.215556	126.215556
633.779388	135.924444	155.342222	155.342222	177.187222	178.400833	178.400833
634.119946	107.283222	84.224611	84.224611	188.595167	109.710444	109.710444
634.460458	148.546000	158.254889	158.254889	199.517667	194.663222	194.663222
634.800923	149.274167	112.865833	112.865833	110.438611	118.933889	118.933889
635.141342	90.535389	112.380389	112.380389	73.544833	50.486222	50.486222
635.481713	127.186444	161.167556	161.167556	146.604222	112.623111	112.623111
635.822038	147.332389	149.759611	149.759611	131.555444	118.205722	118.205722
636.162317	118.691167	128.400056	128.400056	149.031444	115.050333	115.050333
636.502548	110.924056	180.099889	180.099889	138.837111	80.583778	80.583778
636.842733	192.236000	218.935444	218.935444	223.789889	184.954333	184.954333
637.182871	123.302889	152.429556	152.429556	128.157333	139.079833	139.079833
637.522963	131.798167	102.671500	102.671500	174.274556	162.138444	162.138444
637.863007	49.515333	38.592833	38.592833	112.623111	153.885889	153.885889
638.203005	131.312722	99.758833	99.758833	109.467722	137.380778	137.380778
638.542956	91.506278	74.515722	74.515722	46.602667	108.496833	108.496833
638.882860	132.040889	156.313111	156.313111	155.099500	121.118389	121.118389
639.222717	72.573944	106.555056	106.555056	66.505889	104.127833	104.127833
639.562528	138.594389	147.089667	147.089667	161.653000	148.303278	148.303278
639.902291	113.108556	149.516889	149.516889	148.303278	70.632167	70.632167
640.242008	92.477167	86.409111	86.409111	134.953556	100.972444	100.972444
640.581677	106.069611	118.205722	118.205722	22.330444	84.224611	84.224611
640.921300	51.457111	123.060167	123.060167	96.360722	110.924056	110.924056
641.260876	115.778500	115.778500	115.778500	141.264333	107.283222	107.283222
641.600405	161.167556	115.050333	115.050333	106.555056	178.158111	178.158111
641.939887	154.856778	154.856778	154.856778	124.516500	165.779278	165.779278
642.279322	116.506667	114.079444	114.079444	57.039722	101.943333	101.943333
642.618710	103.885111	40.777333	40.777333	108.739556	77.185667	77.185667
642.958050	99.758833	43.932722	43.932722	88.836333	109.467722	109.467722
643.297344	123.060167	131.555444	131.555444	109.710444	80.583778	80.583778
643.636591	144.662444	91.263556	91.263556	90.049944	81.554667	81.554667
643.975791	137.866222	147.575111	147.575111	120.875667	151.215944	151.215944
644.314944	146.846944	117.720278	117.720278	105.584167	93.448056	93.448056
644.654049	116.506667	108.011389	108.011389	167.478333	126.215556	126.215556
644.993108	116.263944	66.505889	66.505889	88.350889	96.846167	96.846167
645.332119	113.594000	50.486222	50.486222	160.924833	72.331222	72.331222
645.671083	149.031444	116.263944	116.263944	142.963389	184.226167	184.226167
646.010000	128.157333	126.943722	126.943722	100.244278	160.924833	160.924833
646.348870	94.418944	136.895333	136.895333	66.505889	110.195889	110.195889
646.687693	182.769833	180.342611	180.342611	217.964556	134.225389	134.225389
647.026468	69.661278	137.623500	137.623500	41.748222	61.166000	61.166000
647.365197	63.350500	125.244667	125.244667	60.923278	90.049944	90.049944
647.703878	139.565278	127.429167	127.429167	125.001944	141.992500	141.992500
648.042511	101.457889	99.030667	99.030667	174.274556	126.943722	126.943722
648.381098	78.642000	105.341444	105.341444	157.526722	146.604222	146.604222
648.719637	111.166778	120.875667	120.875667	114.807611	133.011778	133.011778
649.058129	101.457889	51.699833	51.699833	68.690389	72.331222	72.331222
649.396574	75.729333	91.506278	91.506278	75.729333	91.506278	91.506278
649.734971	110.681333	116.749389	116.749389	143.448833	145.876056	145.876056
650.073321	74.030278	55.826111	55.826111	80.098333	47.330833	47.330833
650.411624	110.681333	110.681333	110.681333	99.758833	24.514944	24.514944
650.749879	87.622722	116.749389	116.749389	81.554667	76.700222	76.700222
651.088087	144.905167	120.632944	120.632944	95.147111	93.933500	93.933500
651.426248	94.418944	30.097556	30.097556	88.350889	95.632556	95.632556
651.764361	57.525167	36.893778	36.893778	63.593222	39.321000	39.321000
652.102427	174.274556	163.352056	163.352056	122.089278	114.807611	114.807611
652.440445	110.195889	76.214778	76.214778	110.195889	140.536167	140.536167
652.778416	119.662056	147.575111	147.575111	154.856778	156.070389	156.070389
653.116339	55.826111	42.476389	42.476389	116.506667	89.807222	89.807222
653.454215	162.866611	102.186056	102.186056	87.622722	108.254111	108.254111
653.792043	61.408722	84.467333	84.467333	74.758444	69.904000	69.904000
654.129824	94.661667	92.234444	92.234444	146.846944	69.175833	69.175833
654.467557	100.244278	137.866222	137.866222	122.089278	63.835944	63.835944
654.805243	83.253722	128.157333	128.157333	106.312333	52.913444	52.913444
655.142881	162.623889	83.739167	83.739167	129.856389	131.070000	131.070000
655.480472	54.369778	153.885889	153.885889	91.991722	78.642000	78.642000
655.818015	66.505889	43.447278	43.447278	83.496444	56.797000	56.797000
656.155510	134.468111	156.313111	156.313111	113.836722	55.583389	55.583389
656.492958	79.855611	110.195889	110.195889	44.660889	91.991722	91.991722
656.830358	63.107778	69.175833	69.175833	57.039722	20.631389	20.631389
657.167711	90.049944	70.632167	70.632167	31.796611	36.651056	36.651056
657.505015	129.128222	81.797389	81.797389	129.128222	51.457111	51.457111
657.842273	111.166778	52.913444	52.913444	91.749000	39.563722	39.563722
658.179482	123.545611	117.477556	117.477556	117.477556	51.942556	51.942556
658.516644	63.593222	12.621556	12.621556	64.806833	51.457111	51.457111
658.853758	43.690000	87.380000	87.380000	89.807222	66.748611	66.748611
659.190824	32.767500	58.253333	58.253333	53.398889	52.185278	52.185278
659.527842	100.487000	26.456722	26.456722	93.205333	90.778111	90.778111
659.864813	142.720667	50.486222	50.486222	120.875667	126.943722	126.943722
660.201736	107.768667	107.768667	107.768667	96.846167	167.235611	167.235611
660.538611	122.332000	75.001167	75.001167	102.914222	91.991722	91.991722
660.875438	65.777722	102.186056	102.186056	82.768278	130.099111	130.099111
661.212218	82.040111	89.321778	89.321778	39.563722	15.291500	15.291500
661.548950	49.515333	87.137278	87.137278	140.536167	38.592833	38.592833
661.885633	146.361500	130.584556	130.584556	94.176222	109.953167	109.953167
662.222269	61.894167	87.380000	87.380000	121.361111	105.584167	105.584167
662.558857	112.865833	116.506667	116.506667	98.302500	48.544444	48.544444
662.895397	263.110889	261.897278	261.897278	326.218667	212.139222	212.139222
663.231889	81.069222	66.505889	66.505889	38.592833	45.874500	45.874500
663.568334	42.476389	15.776944	15.776944	6.068056	14.563333	14.563333
663.904730	146.604222	93.205333	93.205333	104.127833	157.526722	157.526722
664.241078	64.564111	97.331611	97.331611	94.904389	181.070778	181.070778
664.577378	89.321778	119.662056	119.662056	95.389833	119.662056	119.662056
664.913631	143.934278	107.525944	107.525944	61.408722	94.176222	94.176222
665.249835	113.836722	136.895333	136.895333	90.778111	106.555056	106.555056
665.585991	125.001944	82.525556	82.525556	99.516111	94.661667	94.661667
665.922099	92.477167	42.719111	42.719111	83.981889	86.409111	86.409111
666.258159	96.118000	117.963000	117.963000	46.359944	73.059389	73.059389
666.594171	101.943333	115.293056	115.293056	95.875278	46.117222	46.117222
666.930135	48.544444	117.720278	117.720278	35.194722	61.894167	61.894167
667.266051	104.370556	94.661667	94.661667	160.196667	145.633333	145.633333
667.601919	114.079444	105.584167	105.584167	61.894167	66.748611	66.748611
667.937738	100.729722	74.030278	74.030278	31.553889	63.107778	63.107778
668.273510	100.244278	105.098722	105.098722	111.166778	111.166778	111.166778
668.609233	383.986556	380.345722	380.345722	299.033778	339.082944	339.082944
668.944908	145.147889	166.992889	166.992889	126.943722	91.749000	91.749000
669.280535	19.417778	40.049167	40.049167	41.262778	27.913056	27.913056
669.616114	81.554667	92.477167	92.477167	77.913833	50.000778	50.000778
669.951644	87.865444	89.079056	89.079056	110.924056	92.719889	92.719889
670.287126	75.486611	59.709667	59.709667	58.496056	57.282444	57.282444
670.622560	165.536556	152.186833	152.186833	138.837111	181.313500	181.313500
670.957946	83.011000	83.011000	83.011000	67.234056	95.147111	95.147111
671.293283	112.865833	120.147500	120.147500	82.525556	100.729722	100.729722
671.628572	137.380778	167.721056	167.721056	138.594389	130.099111	130.099111
671.963813	110.924056	97.574333	97.574333	83.011000	57.525167	57.525167
672.299006	143.934278	158.497611	158.497611	133.011778	91.749000	91.749000
672.634150	115.293056	76.457500	76.457500	109.225000	123.788333	123.788333
672.969245	126.701000	53.884333	53.884333	62.379611	83.011000	83.011000
673.304293	91.020833	78.884722	78.884722	43.690000	71.603056	71.603056
673.639291	61.408722	77.185667	77.185667	75.972056	73.544833	73.544833
673.974242	101.215167	129.128222	129.128222	153.400444	121.846556	121.846556
674.309144	68.447667	59.952389	59.952389	68.447667	27.184889	27.184889
674.643998	95.632556	101.700611	101.700611	112.623111	151.458667	151.458667
674.978803	71.117611	109.953167	109.953167	114.807611	90.535389	90.535389
675.313560	94.418944	73.787556	73.787556	64.078667	117.477556	117.477556
675.648268	72.331222	100.244278	100.244278	82.040111	88.108167	88.108167
675.982928	45.389056	35.680167	35.680167	112.137667	70.874889	70.874889
676.317539	96.603444	123.302889	123.302889	83.253722	72.331222	72.331222
676.652101	78.156556	53.884333	53.884333	78.156556	55.097944	55.097944
676.986615	71.603056	72.816667	72.816667	48.544444	19.417778	19.417778
677.321081	54.127056	82.040111	82.040111	39.563722	44.418167	44.418167
677.655498	118.933889	93.448056	93.448056	71.603056	129.856389	129.856389
677.989866	17.476000	7.767111	7.767111	40.534611	11.407944	11.407944
678.324186	87.865444	96.360722	96.360722	142.477944	130.341833	130.341833
678.658457	117.963000	66.991333	66.991333	125.244667	100.972444	100.972444
678.992680	133.011778	101.457889	101.457889	94.176222	72.331222	72.331222
679.326854	92.477167	113.108556	113.108556	75.486611	97.331611	97.331611
679.660979	69.418556	52.428000	52.428000	51.214389	90.049944	90.049944
679.995055	79.855611	79.855611	79.855611	70.146722	32.524778	32.524778
680.329083	67.234056	89.079056	89.079056	129.128222	143.691556	143.691556
680.663062	220.149056	181.313500	181.313500	116.992111	197.090444	197.090444
680.996993	74.273000	76.700222	76.700222	86.409111	143.448833	143.448833
681.330874	104.127833	135.681722	135.681722	113.836722	33.738389	33.738389
681.664707	16.747833	45.874500	45.874500	37.379222	48.301722	48.301722
681.998491	74.273000	31.796611	31.796611	42.719111	113.108556	113.108556
682.332227	3.883556	53.641611	53.641611	25.728556	86.409111	86.409111
682.665913	90.049944	54.855222	54.855222	24.514944	143.448833	143.448833
682.999551	53.156167	14.320611	14.320611	73.787556	4.611722	4.611722
683.333140	84.467333	91.749000	91.749000	58.981500	102.671500	102.671500
683.666680	47.573556	62.136889	62.136889	109.467722	110.681333	110.681333
684.000171	66.991333	36.651056	36.651056	41.505500	52.428000	52.428000
684.333613	154.128611	92.234444	92.234444	118.933889	80.098333	80.098333
684.667006	44.660889	144.177000	144.177000	105.341444	95.632556	95.632556
685.000351	121.846556	81.797389	81.797389	84.224611	85.438222	85.438222
685.333646	50.971667	100.729722	100.729722	53.398889	32.767500	32.767500
685.666893	74.030278	69.175833	69.175833	72.816667	57.039722	57.039722
686.000091	69.904000	84.467333	84.467333	77.185667	92.962611	92.962611
686.333239	70.146722	83.496444	83.496444	49.515333	71.360333	71.360333
686.666339	43.204556	26.214000	26.214000	51.699833	84.467333	84.467333
686.999390	61.408722	16.505111	16.505111	48.059000	11.650667	11.650667
687.332391	50.486222	60.195111	60.195111	14.077889	22.573167	22.573167
687.665344	129.370944	100.244278	100.244278	89.321778	118.448444	118.448444
687.998247	97.088889	78.884722	78.884722	27.913056	49.758056	49.758056
688.331102	60.195111	56.554278	56.554278	92.962611	95.389833	95.389833
688.663907	53.884333	33.252944	33.252944	35.680167	42.961833	42.961833
688.996664	89.321778	22.573167	22.573167	46.845389	57.767889	57.767889
689.329371	54.855222	43.932722	43.932722	68.204944	69.418556	69.418556
689.662029	118.448444	134.225389	134.225389	118.448444	102.671500	102.671500
689.994638	125.487389	191.022389	191.022389	133.982667	133.982667	133.982667
690.327198	62.865056	87.137278	87.137278	100.487000	45.874500	45.874500
690.659708	72.573944	113.836722	113.836722	93.205333	61.651444	61.651444
690.992170	25.000389	86.894556	86.894556	58.981500	66.263167	66.263167
691.324582	141.264333	163.109333	163.109333	177.672667	152.186833	152.186833
691.656945	36.651056	24.514944	24.514944	48.787167	37.864667	37.864667
691.989259	45.874500	79.855611	79.855611	87.137278	87.137278	87.137278
692.321524	47.088111	84.710056	84.710056	68.933111	43.447278	43.447278
692.653739	51.699833	16.505111	16.505111	54.127056	44.418167	44.418167
692.985905	1.456333	17.233278	17.233278	45.146333	20.874111	20.874111
693.318022	103.156944	121.361111	121.361111	74.030278	86.166389	86.166389
693.650089	65.777722	82.768278	82.768278	57.282444	125.244667	125.244667
693.982107	11.893389	9.466167	9.466167	61.651444	17.961444	17.961444
694.314076	101.943333	52.185278	52.185278	83.739167	76.457500	76.457500
694.645996	114.807611	92.962611	92.962611	102.671500	118.448444	118.448444
694.977866	150.002333	174.274556	174.274556	105.098722	83.253722	83.253722
695.309686	80.098333	151.701389	151.701389	80.098333	63.107778	63.107778
695.641458	131.312722	94.904389	94.904389	86.409111	113.108556	113.108556
695.973180	104.856000	102.428778	102.428778	125.487389	112.137667	112.137667
696.304852	60.437833	81.069222	81.069222	71.360333	95.632556	95.632556
696.636475	131.555444	120.632944	120.632944	80.583778	125.487389	125.487389
696.968049	108.254111	80.341056	80.341056	105.826889	122.817444	122.817444
697.299573	66.263167	50.486222	50.486222	119.662056	85.680944	85.680944
697.631047	89.321778	80.826500	80.826500	118.448444	83.253722	83.253722
697.962472	15.048778	66.020444	66.020444	59.952389	45.389056	45.389056
698.293848	49.515333	77.428389	77.428389	73.787556	37.379222	37.379222
698.625174	72.088500	28.398500	28.398500	73.302111	72.088500	72.088500
698.956451	83.496444	64.078667	64.078667	54.369778	48.301722	48.301722
699.287678	83.253722	69.904000	69.904000	29.854833	44.418167	44.418167
699.618855	55.340667	100.244278	100.244278	55.340667	48.059000	48.059000
699.949983	56.554278	101.457889	101.457889	68.690389	32.282056	32.282056
700.281061	113.108556	119.176611	119.176611	94.904389	77.913833	77.913833
700.612089	41.262778	67.962222	67.962222	58.253333	66.748611	66.748611
700.943068	15.534222	15.534222	15.534222	42.233667	67.719500	67.719500
701.273998	38.835556	50.971667	50.971667	70.389444	18.204167	18.204167
701.604877	33.495667	40.777333	40.777333	72.331222	49.272611	49.272611
701.935707	98.545222	48.787167	48.787167	99.758833	114.322167	114.322167
702.266487	128.157333	105.098722	105.098722	101.457889	159.711222	159.711222
702.597218	74.030278	154.128611	154.128611	174.760000	101.943333	101.943333
702.927899	73.059389	69.418556	69.418556	116.749389	92.477167	92.477167
703.258530	112.865833	123.788333	123.788333	106.797778	70.389444	70.389444
703.589111	72.573944	59.224222	59.224222	83.496444	100.487000	100.487000
703.919642	43.932722	42.719111	42.719111	116.749389	35.437444	35.437444
704.250124	33.010222	13.592444	13.592444	-0.970889	43.932722	43.932722
704.580556	72.573944	39.806444	39.806444	34.952000	87.137278	87.137278
704.910938	73.302111	45.389056	45.389056	50.243500	41.748222	41.748222
705.241270	106.797778	94.661667	94.661667	63.107778	66.748611	66.748611
705.571553	115.050333	93.205333	93.205333	89.564500	121.118389	121.118389
705.901785	43.690000	3.640833	3.640833	-16.990556	19.417778	19.417778
706.231968	37.621944	72.816667	72.816667	59.466944	20.631389	20.631389
706.562101	7.281667	1.213611	1.213611	13.349722	48.544444	48.544444
706.892184	49.758056	66.748611	66.748611	41.262778	63.107778	63.107778
707.222216	4.369000	95.389833	95.389833	63.835944	48.059000	48.059000
707.552199	113.108556	132.526333	132.526333	154.371333	68.204944	68.204944
707.882132	30.097556	37.379222	37.379222	79.855611	49.515333	49.515333
708.212016	72.816667	95.875278	95.875278	100.729722	116.506667	116.506667
708.541849	95.389833	45.631778	45.631778	16.505111	73.544833	73.544833
708.871632	109.953167	61.408722	61.408722	54.127056	78.399278	78.399278
709.201365	50.728944	91.991722	91.991722	79.855611	54.369778	54.369778
709.531048	57.767889	83.253722	83.253722	34.709278	49.272611	49.272611
709.860681	71.845778	151.944111	151.944111	93.690778	125.244667	125.244667
710.190264	109.953167	116.021222	116.021222	96.603444	120.875667	120.875667
710.519796	143.448833	150.730500	150.730500	131.312722	127.671889	127.671889
710.849279	44.903611	31.553889	31.553889	47.330833	37.621944	37.621944
711.178712	54.127056	82.040111	82.040111	21.359556	52.913444	52.913444
711.508094	-4.611722	50.000778	50.000778	17.233278	93.690778	93.690778
711.837427	20.631389	2.427222	2.427222	49.758056	54.612500	54.612500
712.166709	83.011000	187.381556	187.381556	159.468500	120.632944	120.632944
712.495941	103.399667	58.496056	58.496056	5.097167	59.709667	59.709667
712.825123	66.748611	46.117222	46.117222	74.030278	66.748611	66.748611
713.154255	139.808000	124.031056	124.031056	130.099111	119.176611	119.176611
713.483336	68.690389	119.662056	119.662056	88.108167	99.030667	99.030667
713.812367	6.310778	57.282444	57.282444	29.369389	51.214389	51.214389
714.141348	147.332389	116.992111	116.992111	108.496833	84.224611	84.224611
714.470279	138.594389	104.613278	104.613278	139.808000	111.894944	111.894944
714.799159	71.603056	47.330833	47.330833	37.621944	76.457500	76.457500
715.127990	40.291889	70.632167	70.632167	7.524389	99.758833	99.758833
715.456769	50.486222	55.340667	55.340667	51.699833	58.981500	58.981500
715.785499	94.661667	109.225000	109.225000	131.070000	65.535000	65.535000
716.114178	67.476778	38.350111	38.350111	54.127056	38.350111	38.350111
716.442807	41.505500	50.000778	50.000778	93.690778	42.719111	42.719111
716.771385	76.942944	80.583778	80.583778	86.651833	89.079056	89.079056
717.099914	42.719111	40.291889	40.291889	25.728556	19.660500	19.660500
717.428391	98.545222	63.350500	63.350500	62.136889	83.981889	83.981889
717.756819	71.360333	71.360333	71.360333	22.815889	41.020056	41.020056
718.085195	33.738389	89.564500	89.564500	-6.310778	48.301722	48.301722
718.413522	83.739167	122.574722	122.574722	94.661667	91.020833	91.020833
718.741798	81.554667	51.214389	51.214389	63.350500	76.700222	76.700222
719.070023	88.836333	93.690778	93.690778	50.000778	77.913833	77.913833
719.398198	101.700611	128.400056	128.400056	68.933111	71.360333	71.360333
719.726323	75.729333	101.215167	101.215167	52.670722	45.389056	45.389056
720.054397	170.876444	94.418944	94.418944	123.545611	130.827278	130.827278
720.382420	107.768667	98.059778	98.059778	108.982278	145.390611	145.390611
720.710393	135.681722	142.963389	142.963389	135.681722	84.710056	84.710056
721.038316	69.418556	24.514944	24.514944	13.592444	39.078278	39.078278
721.366188	74.515722	35.680167	35.680167	74.515722	-22.573167	-22.573167
721.694009	58.496056	29.369389	29.369389	64.564111	19.660500	19.660500
722.021779	14.563333	50.971667	50.971667	3.640833	66.748611	66.748611
722.349499	71.603056	60.680556	60.680556	64.321389	101.943333	101.943333
722.677169	85.195500	52.428000	52.428000	48.787167	53.641611	53.641611
723.004787	60.437833	59.224222	59.224222	8.252556	61.651444	61.651444
723.332355	108.739556	67.476778	67.476778	72.331222	68.690389	68.690389
723.659873	54.612500	49.758056	49.758056	67.962222	55.826111	55.826111
723.987339	117.477556	64.078667	64.078667	61.651444	56.797000	56.797000
724.314755	54.369778	10.679778	10.679778	49.515333	71.360333	71.360333
724.642120	95.632556	100.487000	100.487000	77.428389	102.914222	102.914222
724.969435	-25.728556	37.379222	37.379222	62.865056	38.592833	38.592833
725.296699	13.107000	65.292278	65.292278	-23.301333	44.660889	44.660889
725.623911	103.642389	90.292667	90.292667	95.147111	97.574333	97.574333
725.951074	67.476778	84.467333	84.467333	27.427611	40.777333	40.777333
726.278185	77.428389	22.815889	22.815889	66.505889	34.952000	34.952000
726.605245	113.836722	121.118389	121.118389	87.137278	106.555056	106.555056
726.932255	87.137278	93.205333	93.205333	5.825333	49.515333	49.515333
727.259214	41.262778	46.117222	46.117222	55.826111	57.039722	57.039722
727.586122	42.233667	72.573944	72.573944	49.515333	79.855611	79.855611
727.912979	52.428000	31.796611	31.796611	29.369389	86.409111	86.409111
728.239785	97.331611	88.836333	88.836333	73.059389	120.390222	120.390222
728.566540	71.845778	57.282444	57.282444	79.127444	54.855222	54.855222
728.893245	27.184889	52.670722	52.670722	41.748222	97.574333	97.574333
729.219898	56.797000	36.165611	36.165611	60.437833	87.137278	87.137278
729.546501	71.360333	68.933111	68.933111	62.865056	19.175056	19.175056
729.873052	23.786778	63.835944	63.835944	31.068444	26.214000	26.214000
730.199552	174.031833	149.759611	149.759611	217.721833	150.973222	150.973222
730.526002	66.748611	99.516111	99.516111	71.603056	81.311944	81.311944
730.852400	102.671500	63.835944	63.835944	90.535389	80.826500	80.826500
731.178748	82.525556	117.720278	117.720278	52.185278	75.243889	75.243889
731.505044	23.058611	27.913056	27.913056	-21.845000	6.068056	6.068056
731.831290	44.903611	53.398889	53.398889	26.699444	-6.068056	-6.068056
732.157484	48.787167	92.477167	92.477167	88.836333	96.118000	96.118000
732.483627	-6.310778	48.301722	48.301722	50.728944	44.660889	44.660889
732.809719	22.573167	80.826500	80.826500	28.641222	69.904000	69.904000
733.135760	94.176222	77.185667	77.185667	95.389833	46.845389	46.845389
733.461750	39.563722	46.845389	46.845389	18.932333	60.195111	60.195111
733.787688	73.787556	101.700611	101.700611	104.127833	81.069222	81.069222
734.113576	30.583000	6.310778	6.310778	6.310778	24.514944	24.514944
734.439412	60.195111	90.535389	90.535389	134.225389	65.049556	65.049556
734.765197	122.332000	96.846167	96.846167	61.651444	88.350889	88.350889
735.090931	111.166778	123.302889	123.302889	50.486222	62.622333	62.622333
735.416614	74.273000	29.369389	29.369389	8.738000	16.019667	16.019667
735.742245	91.506278	50.243500	50.243500	100.001556	84.224611	84.224611
736.067825	122.332000	170.876444	170.876444	173.303667	164.808389	164.808389
736.393354	138.594389	93.690778	93.690778	127.671889	131.312722	131.312722
736.718832	84.710056	125.972833	125.972833	135.681722	90.778111	90.778111
737.044258	24.757667	110.924056	110.924056	34.466556	39.321000	39.321000
737.369633	-20.874111	32.524778	32.524778	8.252556	53.156167	53.156167
737.694957	55.097944	22.330444	22.330444	56.311556	42.961833	42.961833
738.020229	60.437833	70.146722	70.146722	37.379222	17.961444	17.961444
738.345450	41.748222	78.156556	78.156556	108.496833	80.583778	80.583778
738.670619	56.554278	55.340667	55.340667	63.835944	49.272611	49.272611
738.995738	26.456722	65.292278	65.292278	54.369778	44.660889	44.660889
739.320804	158.740333	136.895333	136.895333	146.604222	141.749778	141.749778
739.645820	48.787167	25.728556	25.728556	24.514944	42.719111	42.719111
739.970784	70.389444	105.584167	105.584167	112.865833	88.593611	88.593611
740.295696	40.777333	10.437056	10.437056	28.641222	-5.339889	-5.339889
740.620557	69.175833	44.903611	44.903611	75.243889	67.962222	67.962222
740.945366	54.855222	68.204944	68.204944	57.282444	62.136889	62.136889
741.270124	83.981889	100.972444	100.972444	62.136889	102.186056	102.186056
741.594831	105.098722	90.535389	90.535389	60.195111	89.321778	89.321778
741.919486	33.010222	34.223833	34.223833	20.874111	53.641611	53.641611
742.244089	82.768278	22.087722	22.087722	68.204944	22.087722	22.087722
742.568641	28.641222	82.040111	82.040111	96.603444	41.990944	41.990944
742.893141	82.525556	83.739167	83.739167	117.720278	93.448056	93.448056
743.217590	125.487389	115.778500	115.778500	104.856000	131.555444	131.555444
743.541987	89.079056	90.292667	90.292667	59.952389	92.719889	92.719889
743.866332	91.020833	16.990556	16.990556	47.330833	16.990556	16.990556
744.190626	67.476778	43.204556	43.204556	73.544833	41.990944	41.990944
744.514868	63.107778	42.476389	42.476389	57.039722	33.981111	33.981111
744.839058	34.223833	42.719111	42.719111	60.923278	56.068833	56.068833
745.163197	104.856000	69.661278	69.661278	62.379611	64.806833	64.806833
745.487284	255.101056	242.964944	242.964944	264.809944	278.159667	278.159667
745.811320	98.787944	112.137667	112.137667	61.166000	110.924056	110.924056
746.135303	73.059389	116.749389	116.749389	2.669944	86.409111	86.409111
746.459235	45.389056	66.020444	66.020444	91.506278	98.787944	98.787944
746.783115	85.195500	48.787167	48.787167	50.000778	69.418556	69.418556
747.106944	112.623111	68.933111	68.933111	28.883944	76.214778	76.214778
747.430720	33.738389	-3.883556	-3.883556	-1.456333	27.670333	27.670333
747.754445	43.932722	40.291889	40.291889	14.806056	53.641611	53.641611
748.078118	88.836333	93.690778	93.690778	70.632167	68.204944	68.204944
748.401739	93.448056	-10.922500	-10.922500	112.865833	59.466944	59.466944
748.725308	65.777722	90.049944	90.049944	86.409111	80.341056	80.341056
749.048825	4.369000	48.059000	48.059000	57.767889	54.127056	54.127056
749.372291	52.670722	55.097944	55.097944	40.534611	34.466556	34.466556
749.695705	95.389833	43.204556	43.204556	99.030667	50.486222	50.486222
750.019066	19.175056	54.369778	54.369778	61.651444	-13.592444	-13.592444
750.342376	18.689611	-1.941778	-1.941778	-0.728167	17.476000	17.476000
750.665634	74.030278	57.039722	57.039722	47.330833	114.079444	114.079444
750.988840	28.641222	100.244278	100.244278	43.204556	97.817056	97.817056
751.311994	59.466944	74.030278	74.030278	103.156944	59.466944	59.466944
751.635096	81.797389	75.729333	75.729333	50.243500	80.583778	80.583778
751.958146	41.020056	43.447278	43.447278	47.088111	15.534222	15.534222
752.281143	50.000778	36.651056	36.651056	50.000778	113.108556	113.108556
752.604089	44.903611	66.748611	66.748611	82.525556	37.621944	37.621944
752.926983	27.427611	27.427611	27.427611	21.359556	32.282056	32.282056
753.249825	58.981500	54.127056	54.127056	16.505111	45.631778	45.631778
753.572615	64.806833	27.184889	27.184889	91.506278	68.447667	68.447667
753.895352	55.826111	46.117222	46.117222	63.107778	49.758056	49.758056
754.218038	157.041278	96.360722	96.360722	98.787944	120.632944	120.632944
754.540671	66.991333	50.000778	50.000778	79.127444	77.913833	77.913833
754.863252	116.263944	82.282833	82.282833	106.555056	110.195889	110.195889
755.185781	25.971278	92.719889	92.719889	45.389056	90.292667	90.292667
755.508258	142.720667	137.866222	137.866222	131.798167	130.584556	130.584556
755.830683	60.437833	27.670333	27.670333	22.815889	51.942556	51.942556
756.153056	75.001167	123.545611	123.545611	85.923667	68.933111	68.933111
756.475376	60.437833	60.437833	60.437833	60.437833	39.806444	39.806444
756.797644	-37.379222	-33.738389	-33.738389	26.942167	-34.952000	-34.952000
757.119860	87.865444	81.797389	81.797389	50.243500	116.992111	116.992111
757.442023	133.739944	130.099111	130.099111	165.293833	116.749389	116.749389
757.764135	37.864667	85.195500	85.195500	59.709667	34.223833	34.223833
758.086194	167.235611	153.885889	153.885889	142.963389	161.167556	161.167556
758.408201	55.340667	11.650667	11.650667	80.826500	16.505111	16.505111
758.730155	73.544833	94.176222	94.176222	99.030667	102.671500	102.671500
759.052057	107.525944	119.662056	119.662056	119.662056	107.525944	107.525944
759.373907	-11.407944	41.990944	41.990944	21.359556	28.641222	28.641222
759.695704	68.690389	58.981500	58.981500	40.777333	60.195111	60.195111
760.017449	-8.009833	8.980722	8.980722	44.175444	-11.650667	-11.650667
760.339142	47.330833	-15.776944	-15.776944	10.922500	-15.776944	-15.776944
760.660782	72.816667	81.311944	81.311944	50.971667	97.088889	97.088889
760.982370	71.845778	70.632167	70.632167	96.118000	142.235222	142.235222
761.303905	50.971667	53.398889	53.398889	54.612500	41.262778	41.262778
761.625388	106.312333	130.584556	130.584556	83.253722	95.389833	95.389833
761.946818	64.321389	63.107778	63.107778	59.466944	36.408333	36.408333
762.268196	54.855222	93.690778	93.690778	79.127444	103.399667	103.399667
762.589521	-1.699056	-32.039333	-32.039333	-53.884333	25.000389	25.000389
762.910794	97.331611	110.681333	110.681333	80.341056	87.622722	87.622722
763.232015	-0.728167	27.184889	27.184889	44.175444	17.476000	17.476000
763.553182	35.922889	72.331222	72.331222	27.427611	-12.621556	-12.621556
763.874298	30.825722	63.593222	63.593222	87.865444	39.321000	39.321000
764.195360	103.399667	93.690778	93.690778	117.963000	63.350500	63.350500
764.516370	101.943333	93.448056	93.448056	59.466944	43.690000	43.690000
764.837328	76.942944	91.506278	91.506278	98.787944	61.166000	61.166000
765.158233	89.564500	105.341444	105.341444	84.710056	77.428389	77.428389
765.479085	54.127056	20.145944	20.145944	21.359556	35.922889	35.922889
765.799885	46.117222	55.826111	55.826111	-12.136111	64.321389	64.321389
766.120631	22.330444	90.292667	90.292667	57.525167	7.767111	7.767111
766.441326	69.175833	63.107778	63.107778	50.971667	76.457500	76.457500
766.761967	89.564500	47.088111	47.088111	45.874500	26.456722	26.456722
767.082556	63.350500	79.127444	79.127444	56.068833	36.651056	36.651056
767.403092	102.914222	216.993667	216.993667	133.254500	155.099500	155.099500
767.723575	57.525167	96.360722	96.360722	93.933500	46.602667	46.602667
768.044006	44.903611	50.971667	50.971667	70.389444	75.243889	75.243889
768.364384	99.758833	88.836333	88.836333	87.622722	108.254111	108.254111
768.684709	121.361111	116.506667	116.506667	87.380000	41.262778	41.262778
769.004981	81.311944	88.593611	88.593611	55.826111	65.535000	65.535000
769.325200	80.826500	54.127056	54.127056	50.486222	35.922889	35.922889
769.645367	38.835556	74.030278	74.030278	42.476389	66.748611	66.748611
769.965481	133.011778	94.176222	94.176222	79.612889	147.575111	147.575111
770.285541	83.981889	74.273000	74.273000	68.204944	54.855222	54.855222
770.605549	100.001556	75.729333	75.729333	91.506278	91.506278	91.506278
770.925504	51.214389	52.428000	52.428000	65.777722	26.942167	26.942167
771.245407	34.952000	39.806444	39.806444	68.933111	-12.378833	-12.378833
771.565256	67.476778	32.282056	32.282056	-21.116833	43.204556	43.204556
771.885052	40.777333	97.817056	97.817056	74.758444	84.467333	84.467333
772.204795	85.195500	51.214389	51.214389	0.242722	74.273000	74.273000
772.524486	42.233667	30.097556	30.097556	44.660889	13.107000	13.107000
772.844123	58.738778	47.816278	47.816278	64.806833	36.893778	36.893778
773.163708	154.371333	116.749389	116.749389	131.312722	83.981889	83.981889
773.483239	6.796222	25.000389	25.000389	11.650667	56.554278	56.554278
773.802717	234.955111	174.274556	174.274556	188.837889	233.741500	233.741500
774.122142	132.526333	77.913833	77.913833	97.331611	70.632167	70.632167
774.441515	51.699833	6.796222	6.796222	8.009833	75.972056	75.972056
774.760834	50.971667	-21.845000	-21.845000	67.962222	25.485833	25.485833
775.080100	106.312333	91.749000	91.749000	50.486222	75.972056	75.972056
775.399313	79.855611	41.020056	41.020056	61.651444	68.933111	68.933111
775.718473	33.010222	83.981889	83.981889	71.845778	143.448833	143.448833
776.037579	61.408722	61.408722	61.408722	94.176222	74.758444	74.758444
776.356633	90.292667	38.107389	38.107389	0.485444	72.088500	72.088500
776.675633	52.185278	53.398889	53.398889	64.321389	106.797778	106.797778
776.994580	103.885111	67.476778	67.476778	62.622333	63.835944	63.835944
777.313474	121.118389	161.167556	161.167556	150.245056	132.040889	132.040889
777.632315	107.525944	55.340667	55.340667	90.535389	48.059000	48.059000
777.951103	94.904389	86.409111	86.409111	71.845778	138.594389	138.594389
778.269837	80.098333	47.330833	47.330833	66.748611	42.476389	42.476389
778.588518	55.097944	25.971278	25.971278	66.020444	76.942944	76.942944
778.907146	33.252944	-11.650667	-11.650667	17.476000	-8.009833	-8.009833
779.225720	49.758056	48.544444	48.544444	57.039722	64.321389	64.321389
779.544242	27.913056	58.253333	58.253333	-4.854444	75.243889	75.243889
779.862709	88.593611	94.661667	94.661667	32.767500	86.166389	86.166389
780.181124	100.244278	71.117611	71.117611	97.817056	95.389833	95.389833
780.499485	71.117611	28.641222	28.641222	73.544833	118.448444	118.448444
780.817793	49.272611	18.932333	18.932333	45.631778	71.117611	71.117611
781.136047	30.583000	133.739944	133.739944	56.068833	30.583000	30.583000
781.454248	95.632556	133.254500	133.254500	59.224222	127.186444	127.186444
781.772396	60.195111	48.059000	48.059000	18.932333	16.505111	16.505111
782.090490	48.787167	47.573556	47.573556	50.000778	3.883556	3.883556
782.408531	48.059000	74.758444	74.758444	22.573167	21.359556	21.359556
782.726518	91.263556	75.486611	75.486611	45.146333	46.359944	46.359944
783.044452	77.913833	50.000778	50.000778	-21.602278	-24.029500	-24.029500
783.362333	24.029500	47.088111	47.088111	17.961444	62.865056	62.865056
783.680159	56.554278	96.603444	96.603444	50.486222	90.535389	90.535389
783.997933	122.332000	112.623111	112.623111	72.573944	139.322556	139.322556
784.315653	112.865833	84.952778	84.952778	58.253333	82.525556	82.525556
784.633319	21.845000	29.126667	29.126667	19.417778	44.903611	44.903611
784.950932	89.321778	67.476778	67.476778	82.040111	67.476778	67.476778
785.268491	68.690389	79.612889	79.612889	99.030667	65.049556	65.049556
785.585996	75.486611	9.951611	9.951611	13.592444	14.806056	14.806056
785.903448	40.291889	45.146333	45.146333	79.127444	51.214389	51.214389
786.220847	59.466944	77.671111	77.671111	46.117222	52.185278	52.185278
786.538191	86.894556	102.671500	102.671500	46.845389	89.321778	89.321778
786.855482	94.661667	27.913056	27.913056	70.389444	53.398889	53.398889
787.172720	45.874500	41.020056	41.020056	58.010611	85.923667	85.923667
787.489903	9.466167	72.573944	72.573944	104.127833	70.146722	70.146722
787.807033	-4.611722	52.428000	52.428000	76.700222	68.204944	68.204944
788.124110	102.428778	70.874889	70.874889	83.011000	80.583778	80.583778
788.441132	116.021222	95.389833	95.389833	52.913444	103.885111	103.885111
788.758101	66.020444	126.701000	126.701000	144.905167	107.283222	107.283222
789.075016	161.167556	145.390611	145.390611	104.127833	124.759222	124.759222
789.391877	33.738389	43.447278	43.447278	9.466167	8.252556	8.252556
789.708685	67.234056	64.806833	64.806833	62.379611	-1.941778	-1.941778
790.025438	15.291500	58.981500	58.981500	48.059000	39.563722	39.563722
790.342138	56.311556	49.029889	49.029889	41.748222	58.738778	58.738778
790.658784	0.970889	37.379222	37.379222	47.088111	47.088111	47.088111
790.975376	26.699444	33.981111	33.981111	52.185278	82.525556	82.525556
791.291915	93.690778	93.690778	93.690778	117.963000	94.904389	94.904389
791.608399	48.787167	24.514944	24.514944	104.613278	30.583000	30.583000
791.924830	51.214389	28.155778	28.155778	2.669944	37.864667	37.864667
792.241206	33.010222	22.087722	22.087722	34.223833	-22.815889	-22.815889
792.557529	56.311556	64.806833	64.806833	64.806833	69.661278	69.661278
792.873798	22.087722	22.087722	22.087722	39.078278	48.787167	48.787167
793.190012	-2.184500	59.709667	59.709667	58.496056	37.864667	37.864667
793.506173	40.777333	39.563722	39.563722	37.136500	21.359556	21.359556
793.822280	33.010222	73.059389	73.059389	64.564111	3.883556	3.883556
794.138333	21.116833	76.942944	76.942944	74.515722	8.980722	8.980722
794.454332	94.904389	37.864667	37.864667	88.836333	37.864667	37.864667
794.770277	119.662056	69.904000	69.904000	66.263167	55.340667	55.340667
795.086167	51.699833	62.622333	62.622333	75.972056	109.953167	109.953167
795.402004	55.583389	73.787556	73.787556	19.175056	67.719500	67.719500
795.717787	127.429167	40.049167	40.049167	72.816667	47.330833	47.330833
796.033515	-11.650667	29.612111	29.612111	27.184889	-16.505111	-16.505111
796.349190	30.825722	27.184889	27.184889	49.029889	2.912667	2.912667
796.664810	60.195111	109.953167	109.953167	128.157333	117.234833	117.234833
796.980376	70.632167	33.010222	33.010222	70.632167	29.369389	29.369389
797.295888	68.933111	68.933111	68.933111	20.388667	51.942556	51.942556
797.611346	78.642000	33.738389	33.738389	43.447278	75.001167	75.001167
797.926750	97.817056	91.749000	91.749000	54.127056	126.943722	126.943722
798.242099	74.515722	69.661278	69.661278	127.914611	125.487389	125.487389
798.557394	158.254889	106.069611	106.069611	124.273778	138.837111	138.837111
798.872635	76.457500	66.748611	66.748611	87.380000	49.758056	49.758056
799.187822	31.796611	79.127444	79.127444	70.632167	35.437444	35.437444
799.502955	108.011389	53.398889	53.398889	106.797778	36.408333	36.408333
799.818033	85.438222	92.719889	92.719889	80.583778	80.583778	80.583778
800.133057	9.708889	43.690000	43.690000	75.243889	69.175833	69.175833
800.448027	106.312333	129.370944	129.370944	101.457889	145.147889	145.147889
800.762942	-3.883556	27.670333	27.670333	31.311167	67.719500	67.719500
801.077803	89.564500	85.923667	85.923667	89.564500	27.670333	27.670333
801.392610	-3.398111	-19.175056	-19.175056	17.233278	24.514944	24.514944
801.707362	66.748611	71.603056	71.603056	57.039722	60.680556	60.680556
802.022060	49.029889	56.311556	56.311556	84.224611	50.243500	50.243500
802.336703	66.263167	101.457889	101.457889	142.720667	126.943722	126.943722
802.651292	48.787167	11.165222	11.165222	23.301333	18.446889	18.446889
802.965827	50.971667	84.952778	84.952778	53.398889	30.340278	30.340278
803.280307	57.767889	88.108167	88.108167	69.904000	57.767889	57.767889
803.594733	88.593611	84.952778	84.952778	52.185278	86.166389	86.166389
803.909104	7.524389	62.136889	62.136889	41.505500	98.545222	98.545222
804.223421	58.738778	25.971278	25.971278	6.553500	91.506278	91.506278
804.537684	33.738389	27.670333	27.670333	-22.087722	33.738389	33.738389
804.851891	34.709278	72.331222	72.331222	66.263167	41.990944	41.990944
805.166045	22.815889	62.865056	62.865056	58.010611	68.933111	68.933111
805.480143	88.836333	107.040500	107.040500	69.418556	22.087722	22.087722
805.794188	91.020833	50.971667	50.971667	75.243889	99.516111	99.516111
806.108177	82.525556	9.708889	9.708889	35.194722	37.621944	37.621944
806.422112	193.692333	181.556222	181.556222	190.051500	169.420111	169.420111
806.735993	34.223833	60.923278	60.923278	-7.038944	71.845778	71.845778
807.049818	101.700611	87.137278	87.137278	111.409500	84.710056	84.710056
807.363590	14.806056	90.049944	90.049944	51.214389	45.146333	45.146333
807.677306	110.924056	69.661278	69.661278	101.215167	41.748222	41.748222
807.990968	104.856000	58.738778	58.738778	72.088500	79.370167	79.370167
808.304575	56.311556	85.438222	85.438222	114.564889	119.419333	119.419333
808.618128	54.612500	58.253333	58.253333	65.535000	86.166389	86.166389
808.931625	81.554667	87.622722	87.622722	104.613278	65.777722	65.777722
809.245068	13.107000	31.311167	31.311167	17.961444	36.165611	36.165611
809.558457	13.107000	-28.155778	-28.155778	-2.669944	-25.728556	-25.728556
809.871790	63.350500	97.331611	97.331611	77.913833	130.099111	130.099111
810.185069	75.243889	33.981111	33.981111	67.962222	47.330833	47.330833
810.498293	99.030667	107.525944	107.525944	71.117611	101.457889	101.457889
810.811462	78.884722	97.088889	97.088889	41.262778	32.767500	32.767500
811.124576	49.758056	37.621944	37.621944	50.971667	59.466944	59.466944
811.437636	24.272222	23.058611	23.058611	35.194722	18.204167	18.204167
811.750640	39.078278	29.369389	29.369389	111.894944	37.864667	37.864667
812.063590	110.438611	46.117222	46.117222	67.962222	71.603056	71.603056
812.376485	80.341056	20.874111	20.874111	80.341056	91.263556	91.263556
812.689325	98.787944	62.379611	62.379611	45.389056	55.097944	55.097944
813.002110	47.816278	83.011000	83.011000	73.302111	44.175444	44.175444
813.314840	25.485833	80.098333	80.098333	98.302500	55.826111	55.826111
813.627516	99.516111	87.380000	87.380000	42.476389	70.389444	70.389444
813.940136	24.272222	131.070000	131.070000	6.068056	80.098333	80.098333
814.252701	101.700611	88.350889	88.350889	78.642000	65.292278	65.292278
814.565212	86.894556	120.875667	120.875667	94.176222	100.244278	100.244278
814.877667	6.310778	85.195500	85.195500	7.524389	13.592444	13.592444
815.190067	159.225778	121.603833	121.603833	88.836333	50.000778	50.000778
815.502413	90.778111	15.534222	15.534222	62.865056	94.418944	94.418944
815.814703	99.758833	93.690778	93.690778	99.758833	90.049944	90.049944
816.126938	125.487389	137.623500	137.623500	68.447667	100.001556	100.001556
816.439118	68.933111	64.078667	64.078667	66.505889	79.855611	79.855611
816.751243	17.476000	80.583778	80.583778	73.302111	38.107389	38.107389
817.063313	116.992111	91.506278	91.506278	130.341833	109.710444	109.710444
817.375328	60.923278	104.613278	104.613278	22.087722	45.146333	45.146333
817.687287	60.680556	72.816667	72.816667	46.117222	58.253333	58.253333
817.999192	44.418167	46.845389	46.845389	103.885111	80.826500	80.826500
818.311041	47.330833	30.340278	30.340278	1.213611	47.330833	47.330833
818.622835	69.175833	69.175833	69.175833	65.535000	109.225000	109.225000
818.934574	103.642389	49.029889	49.029889	55.097944	69.661278	69.661278
819.246258	-22.330444	-13.835167	-13.835167	27.427611	-6.553500	-6.553500
819.557887	66.263167	31.068444	31.068444	63.835944	-12.621556	-12.621556
819.869460	28.155778	24.514944	24.514944	52.428000	34.223833	34.223833
820.180978	11.407944	15.048778	15.048778	49.029889	32.039333	32.039333
820.492441	40.291889	57.282444	57.282444	23.301333	77.913833	77.913833
820.803848	91.506278	91.506278	91.506278	56.311556	63.593222	63.593222
821.115200	58.738778	81.797389	81.797389	44.175444	27.184889	27.184889
821.426497	55.097944	46.602667	46.602667	56.311556	78.156556	78.156556
821.737739	24.029500	15.534222	15.534222	7.038944	22.815889	22.815889
822.048925	77.428389	105.341444	105.341444	75.001167	83.496444	83.496444
822.360056	31.311167	15.534222	15.534222	82.282833	96.846167	96.846167
822.671131	127.671889	52.428000	52.428000	56.068833	45.146333	45.146333
822.982151	72.088500	-50.486222	-50.486222	-22.573167	53.884333	53.884333
823.293116	37.379222	38.592833	38.592833	31.311167	25.243111	25.243111
823.604025	46.845389	-5.339889	-5.339889	18.932333	50.486222	50.486222
823.914879	80.341056	43.932722	43.932722	52.428000	36.651056	36.651056
824.225677	42.961833	35.680167	35.680167	17.476000	39.321000	39.321000
824.536420	68.204944	80.341056	80.341056	64.564111	65.777722	65.777722
824.847107	39.563722	50.486222	50.486222	99.030667	9.223444	9.223444
825.157739	39.563722	63.835944	63.835944	65.049556	99.030667	99.030667
825.468315	76.942944	44.175444	44.175444	69.661278	28.398500	28.398500
825.778836	88.836333	37.864667	37.864667	102.186056	115.535778	115.535778
826.089301	13.592444	37.864667	37.864667	76.700222	34.223833	34.223833
826.399711	92.962611	86.894556	86.894556	79.612889	107.525944	107.525944
826.710065	59.224222	34.952000	34.952000	55.583389	39.806444	39.806444
827.020363	145.390611	102.914222	102.914222	115.050333	129.613667	129.613667
827.330606	34.223833	36.651056	36.651056	28.155778	29.369389	29.369389
827.640794	13.835167	34.466556	34.466556	-16.505111	55.097944	55.097944
827.950925	-6.310778	75.001167	75.001167	47.088111	37.379222	37.379222
828.261001	49.272611	88.108167	88.108167	90.535389	134.225389	134.225389
828.571022	19.417778	30.340278	30.340278	1.213611	49.758056	49.758056
828.880986	15.534222	36.165611	36.165611	98.059778	106.555056	106.555056
829.190895	67.719500	-22.087722	-22.087722	55.583389	64.078667	64.078667
829.500749	115.293056	61.894167	61.894167	97.088889	41.262778	41.262778
829.810546	57.525167	55.097944	55.097944	30.825722	72.088500	72.088500
830.120288	107.768667	64.078667	64.078667	31.311167	60.437833	60.437833
830.429974	43.204556	75.972056	75.972056	116.021222	61.408722	61.408722
830.739604	115.293056	87.380000	87.380000	41.262778	67.962222	67.962222
831.049179	96.118000	102.186056	102.186056	83.981889	70.632167	70.632167
831.358697	80.583778	80.583778	80.583778	47.816278	59.952389	59.952389
831.668160	28.155778	58.496056	58.496056	41.505500	71.845778	71.845778
831.977567	61.408722	58.981500	58.981500	35.922889	68.690389	68.690389
832.286918	40.049167	108.011389	108.011389	95.875278	128.642778	128.642778
832.596213	-4.369000	11.407944	11.407944	24.757667	61.166000	61.166000
832.905453	60.195111	60.195111	60.195111	44.418167	28.641222	28.641222
833.214636	85.438222	30.825722	30.825722	41.748222	22.330444	22.330444
833.523764	84.710056	49.515333	49.515333	-14.806056	26.456722	26.456722
833.832836	90.049944	65.777722	65.777722	107.040500	117.963000	117.963000
834.141851	69.904000	62.622333	62.622333	62.622333	29.854833	29.854833
834.450811	-53.641611	22.815889	22.815889	-11.165222	-0.242722	-0.242722
834.759715	8.738000	-11.893389	-11.893389	-7.038944	23.301333	23.301333
835.068563	19.903222	75.729333	75.729333	53.884333	23.544056	23.544056
835.377355	35.680167	76.942944	76.942944	36.893778	30.825722	30.825722
835.686091	97.331611	18.446889	18.446889	43.932722	143.448833	143.448833
835.994770	48.059000	32.282056	32.282056	10.437056	-7.767111	-7.767111
836.303394	65.777722	63.350500	63.350500	70.632167	104.613278	104.613278
836.611962	83.496444	113.836722	113.836722	81.069222	66.505889	66.505889
836.920473	-17.718722	70.874889	70.874889	67.234056	49.029889	49.029889
837.228929	61.166000	4.126278	4.126278	25.971278	23.544056	23.544056
837.537328	-1.699056	23.786778	23.786778	46.845389	38.350111	38.350111
837.845672	153.400444	180.099889	180.099889	147.332389	165.536556	165.536556
838.153959	-15.291500	52.670722	52.670722	55.097944	46.602667	46.602667
838.462190	70.632167	97.331611	97.331611	103.399667	126.458278	126.458278
838.770365	138.108944	157.526722	157.526722	100.487000	87.137278	87.137278
839.078483	94.904389	71.845778	71.845778	96.118000	65.777722	65.777722
839.386546	49.758056	46.117222	46.117222	52.185278	29.126667	29.126667
839.694552	51.942556	48.301722	48.301722	37.379222	33.738389	33.738389
840.002502	45.389056	98.787944	98.787944	100.001556	22.330444	22.330444
840.310396	96.360722	51.457111	51.457111	74.515722	72.088500	72.088500
840.618233	41.020056	34.952000	34.952000	27.670333	37.379222	37.379222
840.926015	89.564500	133.254500	133.254500	122.332000	70.146722	70.146722
841.233739	13.835167	69.661278	69.661278	4.126278	50.243500	50.243500
841.541408	91.506278	131.555444	131.555444	70.874889	92.719889	92.719889
841.849020	68.933111	9.466167	9.466167	50.728944	26.456722	26.456722
842.156576	54.612500	80.098333	80.098333	76.457500	75.243889	75.243889
842.464076	66.748611	87.380000	87.380000	43.690000	67.962222	67.962222
842.771519	100.972444	53.641611	53.641611	52.428000	17.233278	17.233278
843.078906	12.378833	5.097167	5.097167	-20.388667	3.883556	3.883556
843.386237	36.893778	52.670722	52.670722	28.398500	98.787944	98.787944
843.693511	39.078278	0.242722	0.242722	64.564111	64.564111	64.564111
844.000729	50.728944	26.456722	26.456722	-1.456333	88.350889	88.350889
844.307890	74.030278	14.563333	14.563333	42.476389	23.058611	23.058611
844.614995	94.176222	102.671500	102.671500	108.739556	71.117611	71.117611
844.922043	35.680167	62.379611	62.379611	47.816278	34.466556	34.466556
845.229035	23.058611	1.213611	1.213611	25.485833	8.495278	8.495278
845.535970	51.942556	15.534222	15.534222	66.505889	78.642000	78.642000
845.842849	32.282056	51.699833	51.699833	82.040111	20.145944	20.145944
846.149671	25.485833	50.971667	50.971667	33.981111	47.330833	47.330833
846.456437	96.846167	90.778111	90.778111	90.778111	88.350889	88.350889
846.763146	55.583389	14.320611	14.320611	60.437833	56.797000	56.797000
847.069799	43.447278	67.719500	67.719500	78.642000	81.069222	81.069222
847.376395	53.884333	140.050722	140.050722	73.302111	81.797389	81.797389
847.682934	113.351278	114.564889	114.564889	126.701000	110.924056	110.924056
847.989417	-10.437056	72.088500	72.088500	19.903222	30.825722	30.825722
848.295843	55.097944	45.389056	45.389056	97.574333	56.311556	56.311556
848.602213	21.116833	16.262389	16.262389	63.593222	87.865444	87.865444
848.908526	48.544444	72.816667	72.816667	0.000000	63.107778	63.107778
849.214782	56.068833	33.010222	33.010222	42.719111	42.719111	42.719111
849.520981	44.660889	19.175056	19.175056	19.175056	36.165611	36.165611
849.827124	86.651833	40.534611	40.534611	62.379611	52.670722	52.670722
850.133210	-37.864667	-17.233278	-17.233278	-13.592444	-14.806056	-14.806056
850.439239	80.583778	66.020444	66.020444	39.321000	59.952389	59.952389
850.745212	91.020833	115.293056	115.293056	59.466944	63.107778	63.107778
851.051128	57.767889	75.972056	75.972056	124.516500	61.408722	61.408722
851.356987	7.524389	41.505500	41.505500	70.632167	52.428000	52.428000
851.662789	144.905167	130.341833	130.341833	148.546000	141.264333	141.264333
851.968534	73.302111	59.952389	59.952389	70.874889	52.670722	52.670722
852.274223	31.796611	46.359944	46.359944	57.282444	74.273000	74.273000
852.579854	86.894556	83.253722	83.253722	84.467333	84.467333	84.467333
852.885429	60.195111	11.650667	11.650667	10.437056	23.786778	23.786778
853.190947	60.923278	71.845778	71.845778	30.583000	31.796611	31.796611
853.496408	28.398500	38.107389	38.107389	46.602667	50.243500	50.243500
853.801812	33.738389	88.350889	88.350889	85.923667	14.320611	14.320611
854.107160	-10.194333	26.214000	26.214000	54.127056	58.981500	58.981500
854.412450	75.243889	36.408333	36.408333	105.584167	64.321389	64.321389
854.717683	116.021222	51.699833	51.699833	60.195111	41.990944	41.990944
855.022859	37.136500	75.972056	75.972056	52.913444	52.913444	52.913444
855.327979	120.632944	29.612111	29.612111	50.243500	112.137667	112.137667
855.633041	60.195111	73.544833	73.544833	71.117611	112.380389	112.380389
855.938046	95.389833	83.253722	83.253722	71.117611	67.476778	67.476778
856.242995	15.291500	69.904000	69.904000	62.622333	75.972056	75.972056
856.547886	6.068056	31.553889	31.553889	9.708889	9.708889	9.708889
856.852720	19.660500	7.524389	7.524389	-42.233667	-58.010611	-58.010611
857.157497	69.418556	33.010222	33.010222	23.301333	39.078278	39.078278
857.462217	94.176222	75.972056	75.972056	62.622333	66.263167	66.263167
857.766880	81.311944	18.204167	18.204167	18.204167	26.699444	26.699444
858.071486	67.476778	45.631778	45.631778	55.340667	58.981500	58.981500
858.376035	42.719111	35.437444	35.437444	68.204944	24.514944	24.514944
858.680526	15.048778	75.729333	75.729333	5.339889	29.612111	29.612111
858.984961	71.360333	14.320611	14.320611	47.088111	43.447278	43.447278
859.289338	54.612500	77.671111	77.671111	50.971667	67.962222	67.962222
859.593658	112.137667	98.787944	98.787944	106.069611	81.797389	81.797389
859.897921	104.613278	94.904389	94.904389	124.031056	122.817444	122.817444
860.202126	73.302111	29.612111	29.612111	120.632944	74.515722	74.515722
860.506275	-0.485444	-17.476000	-17.476000	71.117611	8.009833	8.009833
860.810366	4.369000	67.476778	67.476778	44.418167	68.690389	68.690389
861.114399	52.428000	87.622722	87.622722	22.087722	66.991333	66.991333
861.418376	56.311556	67.234056	67.234056	81.797389	116.992111	116.992111
861.722295	79.855611	50.728944	50.728944	78.642000	85.923667	85.923667
862.026157	97.817056	29.854833	29.854833	43.204556	82.040111	82.040111
862.329961	38.107389	69.661278	69.661278	30.825722	53.884333	53.884333
862.633709	33.981111	57.039722	57.039722	71.603056	31.553889	31.553889
862.937398	93.690778	87.622722	87.622722	57.282444	120.390222	120.390222
863.241031	-11.407944	33.495667	33.495667	48.059000	15.291500	15.291500
863.544606	37.621944	47.330833	47.330833	24.272222	37.621944	37.621944
863.848124	26.699444	32.767500	32.767500	66.748611	67.962222	67.962222
864.151584	80.826500	129.370944	129.370944	37.136500	82.040111	82.040111
864.454987	-5.097167	54.369778	54.369778	45.874500	21.602278	21.602278
864.758332	-15.048778	-5.339889	-5.339889	-5.339889	-39.321000	-39.321000
865.061620	2.912667	47.816278	47.816278	25.971278	67.234056	67.234056
865.364850	38.592833	60.437833	60.437833	70.146722	85.923667	85.923667
865.668023	23.786778	40.777333	40.777333	-17.476000	-35.680167	-35.680167
865.971138	92.477167	111.894944	111.894944	125.244667	124.031056	124.031056
866.274196	65.049556	65.049556	65.049556	79.612889	39.563722	39.563722
866.577196	39.321000	32.039333	32.039333	50.243500	59.952389	59.952389
866.880139	52.428000	63.350500	63.350500	57.282444	59.709667	59.709667
867.183024	35.680167	38.107389	38.107389	50.243500	56.311556	56.311556
867.485852	33.495667	78.399278	78.399278	103.885111	18.932333	18.932333
867.788622	34.466556	86.651833	86.651833	33.252944	19.903222	19.903222
868.091334	20.388667	21.602278	21.602278	54.369778	-8.738000	-8.738000
868.393989	41.748222	39.321000	39.321000	19.903222	32.039333	32.039333
868.696586	19.417778	91.020833	91.020833	55.826111	65.535000	65.535000
868.999125	61.166000	16.262389	16.262389	45.389056	24.757667	24.757667
869.301607	91.263556	65.777722	65.777722	58.496056	81.554667	81.554667
869.604031	63.835944	90.535389	90.535389	40.777333	77.185667	77.185667
869.906397	30.340278	-14.563333	-14.563333	36.408333	6.068056	6.068056
870.208706	20.145944	0.728167	0.728167	9.223444	65.049556	65.049556
870.510957	49.272611	21.359556	21.359556	22.573167	35.922889	35.922889
870.813150	-41.505500	4.611722	4.611722	10.679778	-9.951611	-9.951611
871.115285	30.097556	112.623111	112.623111	88.350889	89.564500	89.564500
871.417363	29.854833	61.408722	61.408722	108.739556	10.437056	10.437056
871.719382	31.553889	48.544444	48.544444	77.671111	53.398889	53.398889
872.021344	114.079444	44.903611	44.903611	64.321389	77.671111	77.671111
872.323248	57.767889	25.000389	25.000389	131.798167	103.885111	103.885111
872.625094	53.641611	28.155778	28.155778	13.592444	58.496056	58.496056
872.926883	110.438611	99.516111	99.516111	57.039722	87.380000	87.380000
873.228613	51.457111	44.175444	44.175444	95.147111	86.651833	86.651833
873.530286	116.992111	89.079056	89.079056	91.506278	118.205722	118.205722
873.831900	80.583778	92.719889	92.719889	53.884333	57.525167	57.525167
874.133457	52.670722	68.447667	68.447667	59.952389	47.816278	47.816278
874.434956	65.292278	77.428389	77.428389	21.602278	59.224222	59.224222
874.736397	86.166389	138.351667	138.351667	91.020833	87.380000	87.380000
875.037780	80.583778	27.184889	27.184889	50.243500	32.039333	32.039333
875.339105	28.883944	42.233667	42.233667	39.806444	65.292278	65.292278
875.640371	11.893389	8.252556	8.252556	-28.155778	-6.310778	-6.310778
875.941580	96.603444	68.690389	68.690389	26.214000	22.573167	22.573167
876.242731	44.175444	72.088500	72.088500	10.194333	89.079056	89.079056
876.543824	74.030278	31.553889	31.553889	103.156944	57.039722	57.039722
876.844859	15.048778	33.252944	33.252944	24.757667	56.311556	56.311556
877.145835	0.485444	-3.155389	-3.155389	11.407944	28.398500	28.398500
877.446754	52.913444	9.223444	9.223444	17.718722	26.214000	26.214000
877.747614	8.738000	73.059389	73.059389	41.505500	24.514944	24.514944
878.048417	86.894556	82.040111	82.040111	169.420111	126.943722	126.943722
878.349161	63.107778	13.349722	13.349722	1.213611	69.175833	69.175833
878.649847	52.185278	87.380000	87.380000	42.476389	64.321389	64.321389
878.950475	94.661667	52.185278	52.185278	46.117222	42.476389	42.476389
879.251045	99.030667	123.302889	123.302889	92.962611	80.826500	80.826500
879.551556	17.718722	77.185667	77.185667	17.718722	21.359556	21.359556
879.852010	117.720278	137.138056	137.138056	137.138056	125.001944	125.001944
880.152405	33.010222	35.437444	35.437444	53.641611	45.146333	45.146333
880.452741	26.942167	54.855222	54.855222	24.514944	20.874111	20.874111
880.753020	-21.359556	29.612111	29.612111	32.039333	58.738778	58.738778
881.053240	57.282444	53.641611	53.641611	64.564111	64.564111	64.564111
881.353402	74.758444	55.340667	55.340667	100.244278	75.972056	75.972056
881.653506	88.593611	25.485833	25.485833	64.321389	21.845000	21.845000
881.953552	2.427222	42.476389	42.476389	30.340278	29.126667	29.126667
882.253539	36.893778	19.903222	19.903222	59.952389	25.971278	25.971278
882.553467	44.660889	55.583389	55.583389	26.456722	102.914222	102.914222
882.853338	11.893389	59.224222	59.224222	34.952000	53.156167	53.156167
883.153150	65.777722	35.437444	35.437444	52.428000	45.146333	45.146333
883.452903	37.379222	30.097556	30.097556	82.282833	19.175056	19.175056
883.752598	64.564111	20.874111	20.874111	14.806056	62.136889	62.136889
884.052235	22.330444	10.194333	10.194333	51.457111	70.874889	70.874889
884.351814	89.321778	89.321778	89.321778	44.418167	16.505111	16.505111
884.651333	25.971278	80.583778	80.583778	67.234056	114.564889	114.564889
884.950795	62.622333	45.631778	45.631778	27.427611	35.922889	35.922889
885.250198	40.291889	48.787167	48.787167	50.000778	51.214389	51.214389
885.549542	24.029500	11.893389	11.893389	16.747833	10.679778	10.679778
885.848828	-31.796611	25.243111	25.243111	31.311167	60.437833	60.437833
886.148055	100.244278	105.098722	105.098722	82.040111	95.389833	95.389833
886.447224	100.244278	101.457889	101.457889	63.835944	66.263167	66.263167
886.746335	61.894167	38.835556	38.835556	16.990556	58.253333	58.253333
887.045386	51.942556	89.564500	89.564500	55.583389	50.728944	50.728944
887.344379	140.050722	100.001556	100.001556	116.992111	140.050722	140.050722
887.643314	51.942556	10.679778	10.679778	14.320611	140.536167	140.536167
887.942190	20.145944	16.505111	16.505111	5.582611	50.486222	50.486222
888.241007	9.466167	21.602278	21.602278	36.165611	25.243111	25.243111
888.539766	-14.320611	14.806056	14.806056	3.883556	42.719111	42.719111
888.838465	45.389056	51.457111	51.457111	11.407944	46.602667	46.602667
889.137107	24.514944	28.155778	28.155778	50.000778	63.350500	63.350500
889.435689	41.748222	28.398500	28.398500	50.243500	73.302111	73.302111
889.734213	103.642389	108.496833	108.496833	98.787944	103.642389	103.642389
890.032678	126.701000	109.710444	109.710444	63.593222	104.856000	104.856000
890.331085	62.379611	-39.563722	-39.563722	2.912667	53.884333	53.884333
