wavelength	0.009812	0.009922	0.009801	0.009510	0.009853	0.009820

178.106480	-33.495667	-33.495667	24.757667	-31.068444	-23.786778	-31.068444
178.493382	-33.495667	-33.495667	24.757667	-31.068444	-23.786778	-31.068444
178.880256	-33.495667	-33.495667	24.757667	-31.068444	-23.786778	-31.068444
179.267103	-14.077889	-14.077889	-33.495667	-18.932333	-1.941778	25.971278
179.653922	-55.097944	-55.097944	-76.942944	-39.321000	-47.816278	-13.835167
180.040713	-41.505500	-41.505500	-12.378833	-8.738000	-13.592444	-24.514944
180.427476	30.340278	30.340278	41.262778	18.204167	26.699444	14.563333
180.814211	58.981500	58.981500	67.476778	48.059000	6.796222	45.631778
181.200918	28.155778	28.155778	-5.825333	25.728556	7.524389	39.078278
181.587598	129.370944	129.370944	67.476778	62.622333	102.671500	43.204556
181.974250	81.069222	81.069222	78.642000	93.205333	2.184500	65.292278
182.360873	57.767889	57.767889	39.563722	29.854833	94.176222	15.291500
182.747469	24.029500	24.029500	48.301722	64.078667	77.428389	64.078667
183.134037	26.699444	26.699444	75.243889	38.835556	40.049167	41.262778
183.520577	105.826889	105.826889	96.118000	102.186056	103.399667	108.254111
183.907089	7.281667	7.281667	-21.845000	67.962222	9.708889	32.767500
184.293573	-8.738000	-8.738000	47.088111	-5.097167	28.883944	43.447278
184.680029	13.592444	13.592444	13.592444	22.087722	48.787167	-10.679778
185.066457	87.137278	87.137278	121.118389	106.555056	70.146722	122.332000
185.452857	81.554667	81.554667	79.127444	138.594389	94.904389	35.437444
185.839229	29.369389	29.369389	30.583000	13.592444	83.981889	75.486611
186.225573	74.030278	74.030278	99.516111	87.380000	105.584167	112.865833
186.611889	43.932722	43.932722	46.359944	2.669944	57.282444	18.446889
186.998176	-8.495278	-8.495278	97.088889	37.621944	-14.563333	65.535000
187.384436	60.437833	60.437833	99.273389	49.515333	24.029500	37.379222
187.770668	86.166389	86.166389	66.748611	76.457500	10.922500	42.476389
188.156871	76.214778	76.214778	54.369778	50.728944	59.224222	173.303667
188.543046	74.515722	74.515722	84.224611	92.719889	66.020444	104.856000
188.929193	-11.893389	-11.893389	20.874111	50.000778	-10.679778	26.942167
189.315312	98.545222	98.545222	-10.679778	11.165222	-10.679778	29.369389
189.701403	93.205333	93.205333	9.466167	101.700611	102.914222	47.088111
190.087466	45.631778	45.631778	10.437056	94.176222	68.690389	69.904000
190.473500	19.175056	19.175056	26.456722	95.632556	47.088111	81.069222
190.859506	148.546000	148.546000	135.196278	89.079056	144.905167	107.283222
191.245484	22.087722	22.087722	22.087722	47.573556	62.136889	52.428000
191.631434	46.845389	46.845389	20.145944	-2.912667	-17.476000	80.826500
192.017355	85.195500	85.195500	85.195500	59.709667	88.836333	97.331611
192.403248	42.233667	42.233667	58.010611	31.311167	68.933111	62.865056
192.789113	21.845000	21.845000	49.758056	42.476389	36.408333	48.544444
193.174949	40.534611	40.534611	19.903222	39.321000	47.816278	27.184889
193.560757	84.224611	84.224611	70.874889	61.166000	72.088500	44.175444
193.946537	100.244278	100.244278	92.962611	79.612889	95.389833	83.253722
194.332288	97.088889	97.088889	74.030278	175.973611	101.943333	92.234444
194.718011	81.069222	81.069222	85.923667	102.914222	38.592833	58.010611
195.103705	35.437444	35.437444	25.728556	98.545222	11.165222	56.068833
195.489371	-1.456333	-1.456333	5.825333	-16.019667	-24.514944	42.233667
195.875009	83.739167	83.739167	29.126667	58.253333	35.194722	61.894167
196.260618	62.865056	62.865056	60.437833	87.137278	62.865056	105.341444
196.646199	8.495278	8.495278	-10.922500	2.427222	59.466944	-25.485833
197.031751	47.573556	47.573556	7.524389	48.787167	63.350500	31.796611
197.417275	58.010611	58.010611	31.311167	60.437833	58.010611	41.020056
197.802771	-1.699056	-1.699056	-44.175444	-44.175444	37.136500	-33.252944
198.188237	88.108167	88.108167	44.418167	63.835944	78.399278	12.864278
198.573676	-2.184500	-2.184500	50.000778	35.437444	64.564111	50.000778
198.959085	15.291500	15.291500	41.990944	37.136500	26.214000	56.554278
199.344466	-31.796611	-31.796611	39.806444	32.524778	27.670333	8.252556
199.729819	44.660889	44.660889	112.623111	34.952000	73.787556	65.292278
200.115143	95.632556	95.632556	70.146722	93.205333	56.797000	28.883944
200.500438	38.592833	38.592833	61.651444	11.893389	10.679778	50.728944
200.885705	35.194722	35.194722	43.690000	15.776944	19.417778	43.690000
201.270943	125.730111	125.730111	148.788722	90.535389	126.943722	107.525944
201.656152	-9.223444	-9.223444	61.166000	-14.077889	30.825722	21.116833
202.041333	93.448056	93.448056	74.030278	78.884722	84.952778	127.429167
202.426485	78.399278	78.399278	68.690389	66.263167	27.427611	86.894556
202.811608	24.514944	24.514944	51.214389	51.214389	50.000778	41.505500
203.196703	33.738389	33.738389	-13.592444	5.825333	0.970889	0.970889
203.581769	-16.990556	-16.990556	41.262778	13.349722	9.708889	15.776944
203.966806	53.398889	53.398889	29.126667	9.708889	47.330833	84.952778
204.351814	3.398111	3.398111	30.097556	-5.097167	61.651444	-48.787167
204.736794	-18.446889	-18.446889	51.942556	-30.583000	-1.456333	20.388667
205.121745	54.612500	54.612500	-4.854444	60.680556	60.680556	46.117222
205.506667	58.738778	58.738778	75.729333	108.496833	89.079056	64.806833
205.891560	-15.776944	-15.776944	-1.213611	7.281667	16.990556	30.340278
206.276424	58.253333	58.253333	53.398889	54.612500	86.166389	54.612500
206.661260	53.156167	53.156167	105.341444	45.874500	71.360333	75.001167
207.046066	71.360333	71.360333	51.942556	58.010611	66.505889	108.982278
207.430844	122.817444	122.817444	90.049944	54.855222	39.078278	96.118000
207.815593	-20.388667	-20.388667	33.010222	29.369389	58.496056	64.564111
208.200313	39.563722	39.563722	27.427611	-7.767111	101.457889	84.467333
208.585003	46.602667	46.602667	28.398500	8.980722	55.097944	15.048778
208.969665	14.077889	14.077889	58.981500	-15.048778	49.272611	32.282056
209.354299	3.398111	3.398111	55.583389	26.456722	47.088111	68.933111
209.738903	35.194722	35.194722	3.640833	-58.253333	-27.913056	18.204167
210.123478	66.991333	66.991333	26.942167	0.242722	30.583000	22.087722
210.508024	60.680556	60.680556	74.030278	41.262778	93.448056	76.457500
210.892541	41.262778	41.262778	-10.922500	38.835556	18.204167	76.457500
211.277029	66.505889	66.505889	111.409500	91.991722	47.088111	50.728944
211.661488	67.476778	67.476778	32.282056	66.263167	100.244278	89.321778
212.045918	-24.514944	-24.514944	-0.242722	62.865056	30.097556	30.097556
212.430318	-44.175444	-44.175444	-15.048778	-12.621556	5.582611	14.077889
212.814690	76.700222	76.700222	76.700222	94.904389	93.690778	75.486611
213.199033	2.427222	2.427222	18.204167	48.544444	-48.544444	-24.272222
213.583346	-1.213611	-1.213611	-9.708889	75.243889	-24.272222	24.272222
213.967631	1.941778	1.941778	-8.980722	-25.971278	69.904000	35.922889
214.351886	59.466944	59.466944	52.185278	46.117222	-14.563333	-12.136111
214.736112	41.020056	41.020056	87.137278	65.292278	81.069222	33.738389
215.120309	41.262778	41.262778	-10.922500	20.631389	18.204167	33.981111
215.504476	16.262389	16.262389	11.407944	29.612111	-22.573167	-5.582611
215.888615	80.583778	80.583778	61.166000	104.856000	83.011000	59.952389
216.272724	72.088500	72.088500	0.485444	78.156556	76.942944	-23.786778
216.656804	94.418944	94.418944	28.883944	72.573944	43.447278	51.942556
217.040854	11.893389	11.893389	5.825333	5.825333	65.292278	-1.456333
217.424876	81.554667	81.554667	54.855222	79.127444	59.709667	47.573556
217.808868	38.107389	38.107389	86.651833	148.546000	120.632944	51.457111
218.192830	57.767889	57.767889	33.495667	43.204556	32.282056	99.030667
218.576764	-38.592833	-38.592833	20.874111	29.369389	0.242722	51.214389
218.960668	29.126667	29.126667	41.262778	26.699444	27.913056	69.175833
219.344543	44.660889	44.660889	56.797000	62.865056	42.233667	91.991722
219.728388	32.039333	32.039333	-17.718722	-25.000389	13.835167	42.961833
220.112204	115.050333	115.050333	145.390611	88.350889	155.099500	128.400056
220.495991	83.981889	83.981889	31.796611	65.777722	80.341056	71.845778
220.879748	62.136889	62.136889	142.235222	82.768278	107.040500	86.409111
221.263476	54.127056	54.127056	15.291500	-2.912667	50.486222	39.563722
221.647174	68.690389	68.690389	14.077889	67.476778	83.253722	62.622333
222.030843	47.573556	47.573556	34.223833	34.223833	71.845778	76.700222
222.414482	9.708889	9.708889	38.835556	44.903611	72.816667	1.213611
222.798092	113.594000	113.594000	66.263167	29.854833	66.263167	54.127056
223.181672	-18.446889	-18.446889	-13.592444	-2.669944	15.534222	-14.806056
223.565223	-14.806056	-14.806056	33.738389	50.728944	28.883944	36.165611
223.948744	11.650667	11.650667	62.622333	58.981500	52.913444	56.554278
224.332236	63.593222	63.593222	36.893778	39.321000	0.485444	96.360722
224.715698	111.894944	111.894944	130.099111	128.885500	131.312722	149.516889
225.099131	91.749000	91.749000	67.476778	21.359556	33.495667	40.777333
225.482534	26.942167	26.942167	41.505500	35.437444	60.923278	50.000778
225.865907	29.854833	29.854833	6.796222	16.505111	28.641222	40.777333
226.249251	25.728556	25.728556	-0.970889	58.496056	51.214389	12.378833
226.632565	123.545611	123.545611	59.224222	95.632556	83.496444	71.360333
227.015850	66.991333	66.991333	11.165222	23.301333	59.709667	53.641611
227.399104	-15.776944	-15.776944	6.068056	14.563333	50.971667	-18.204167
227.782329	-44.660889	-44.660889	12.378833	6.310778	17.233278	24.514944
228.165525	72.331222	72.331222	28.641222	41.990944	43.204556	35.922889
228.548691	69.175833	69.175833	-14.563333	48.544444	26.699444	9.708889
228.931827	16.505111	16.505111	-4.126278	43.204556	6.796222	78.399278
229.314933	72.088500	72.088500	92.719889	89.079056	79.370167	84.224611
229.698009	2.427222	2.427222	-2.427222	53.398889	-10.922500	7.281667
230.081056	49.758056	49.758056	52.185278	61.894167	32.767500	53.398889
230.464073	33.010222	33.010222	68.204944	80.341056	93.690778	33.010222
230.847060	47.330833	47.330833	24.272222	9.708889	40.049167	27.913056
231.230017	91.991722	91.991722	50.728944	41.020056	38.592833	61.651444
231.612944	21.116833	21.116833	-20.145944	-5.582611	6.553500	-23.786778
231.995842	4.369000	4.369000	18.932333	38.350111	73.544833	40.777333
232.378709	23.544056	23.544056	33.252944	-0.728167	36.893778	-12.864278
232.761547	83.981889	83.981889	80.341056	14.806056	80.341056	85.195500
233.144355	64.564111	64.564111	6.310778	22.087722	-7.038944	25.728556
233.527133	49.758056	49.758056	67.962222	120.147500	89.807222	144.419722
233.909881	2.184500	2.184500	37.379222	27.670333	5.825333	10.679778
234.292599	16.990556	16.990556	30.340278	-9.708889	24.272222	-4.854444
234.675287	32.039333	32.039333	63.593222	58.738778	18.689611	76.942944
235.057945	23.058611	23.058611	18.204167	69.175833	26.699444	-3.640833
235.440574	0.970889	0.970889	-19.660500	50.728944	16.747833	41.020056
235.823172	30.583000	30.583000	0.242722	37.864667	52.428000	8.738000
236.205740	12.378833	12.378833	40.291889	83.981889	63.350500	47.573556
236.588278	104.856000	104.856000	102.428778	45.389056	96.360722	28.398500
236.970786	108.739556	108.739556	35.922889	78.399278	109.953167	116.021222
237.353264	94.176222	94.176222	79.612889	52.913444	37.136500	139.079833
237.735712	110.438611	110.438611	69.175833	114.079444	83.739167	98.302500
238.118130	3.155389	3.155389	61.408722	10.437056	28.641222	49.272611
238.500517	-44.903611	-44.903611	-1.213611	-14.563333	-15.776944	44.903611
238.882875	4.126278	4.126278	80.583778	53.884333	59.952389	46.602667
239.265202	50.486222	50.486222	51.699833	40.777333	60.195111	35.922889
239.647499	17.961444	17.961444	94.418944	44.660889	39.806444	58.010611
240.029767	26.699444	26.699444	-37.621944	20.631389	-2.427222	-6.068056
240.412003	68.690389	68.690389	39.563722	43.204556	-2.912667	79.612889
240.794210	92.962611	92.962611	74.758444	18.932333	40.777333	48.059000
241.176387	72.331222	72.331222	11.650667	15.291500	39.563722	41.990944
241.558533	40.049167	40.049167	64.321389	76.457500	71.603056	109.225000
241.940649	12.136111	12.136111	8.495278	15.776944	18.204167	8.495278
242.322734	115.050333	115.050333	62.865056	123.545611	72.573944	110.195889
242.704790	26.456722	26.456722	-29.369389	21.602278	51.942556	3.398111
243.086815	10.679778	10.679778	30.097556	55.583389	7.038944	119.904778
243.468810	16.262389	16.262389	32.039333	-26.214000	-0.728167	22.330444
243.850774	68.690389	68.690389	49.272611	55.340667	97.817056	66.263167
244.232709	90.535389	90.535389	57.767889	94.176222	80.826500	103.885111
244.614612	28.883944	28.883944	72.573944	50.728944	4.611722	-20.874111
244.996486	16.747833	16.747833	24.029500	-11.165222	36.165611	-0.242722
245.378329	52.913444	52.913444	22.573167	44.418167	4.369000	90.535389
245.760142	1.213611	1.213611	13.349722	31.553889	2.427222	-37.621944
246.141924	48.059000	48.059000	38.350111	78.399278	105.098722	116.021222
246.523676	11.407944	11.407944	6.553500	15.048778	34.466556	-4.369000
246.905397	48.059000	48.059000	40.777333	63.835944	-19.903222	-16.262389
247.287088	117.477556	117.477556	111.409500	71.360333	45.874500	83.496444
247.668748	34.466556	34.466556	5.339889	5.339889	55.097944	17.476000
248.050378	10.922500	10.922500	75.243889	42.476389	64.321389	44.903611
248.431978	0.485444	0.485444	67.234056	53.884333	19.903222	-6.796222
248.813547	44.660889	44.660889	73.787556	75.001167	76.214778	53.156167
249.195085	102.671500	102.671500	31.068444	109.953167	67.476778	92.962611
249.576593	2.669944	2.669944	64.564111	20.874111	-5.825333	19.660500
249.958070	1.456333	1.456333	12.378833	-8.252556	30.583000	60.923278
250.339517	107.768667	107.768667	82.282833	16.747833	77.428389	105.341444
250.720933	44.660889	44.660889	-3.883556	14.320611	-25.728556	56.797000
251.102318	-13.349722	-13.349722	31.553889	-27.913056	-50.971667	-2.427222
251.483673	38.107389	38.107389	46.602667	32.039333	16.262389	39.321000
251.864997	-4.369000	-4.369000	44.175444	-0.728167	-45.631778	23.544056
252.246291	30.340278	30.340278	88.593611	88.593611	6.068056	70.389444
252.627554	11.407944	11.407944	51.457111	68.447667	-6.796222	68.447667
253.008786	13.349722	13.349722	78.884722	7.281667	3.640833	23.058611
253.389987	72.331222	72.331222	43.204556	122.089278	97.817056	40.777333
253.771158	43.204556	43.204556	20.145944	49.272611	55.340667	11.650667
254.152298	82.768278	82.768278	83.981889	98.545222	98.545222	75.486611
254.533408	35.194722	35.194722	26.699444	72.816667	27.913056	64.321389
254.914486	43.204556	43.204556	105.098722	28.641222	95.389833	84.467333
255.295534	-5.339889	-5.339889	52.913444	15.291500	41.990944	-10.194333
255.676551	5.825333	5.825333	32.524778	17.961444	-16.019667	-13.592444
256.057537	81.797389	81.797389	33.252944	53.884333	23.544056	47.816278
256.438492	51.457111	51.457111	38.107389	51.457111	17.476000	41.748222
256.819417	24.272222	24.272222	74.030278	47.330833	10.922500	43.690000
257.200310	53.398889	53.398889	25.485833	36.408333	41.262778	101.943333
257.581173	10.922500	10.922500	66.748611	-18.204167	25.485833	50.971667
257.962005	7.767111	7.767111	44.175444	27.184889	-1.941778	2.912667
258.342806	74.758444	74.758444	61.408722	92.962611	80.826500	55.340667
258.723576	4.854444	4.854444	55.826111	80.098333	7.281667	1.213611
259.104315	41.990944	41.990944	86.894556	114.807611	67.476778	117.234833
259.485023	17.233278	17.233278	22.087722	16.019667	30.583000	31.796611
259.865700	48.301722	48.301722	38.592833	8.252556	-5.097167	27.670333
260.246347	-6.310778	-6.310778	33.738389	9.466167	53.156167	50.728944
260.626962	-5.825333	-5.825333	37.864667	43.932722	-21.602278	11.165222
261.007546	19.660500	19.660500	-24.029500	-21.602278	33.010222	51.214389
261.388099	-21.845000	-21.845000	18.204167	-8.495278	2.427222	42.476389
261.768621	40.049167	40.049167	37.621944	46.117222	44.903611	65.535000
262.149112	44.903611	44.903611	57.039722	50.971667	109.225000	72.816667
262.529573	7.281667	7.281667	82.525556	60.680556	60.680556	18.204167
262.910002	23.786778	23.786778	52.913444	45.631778	-5.339889	17.718722
263.290399	-13.835167	-13.835167	-16.262389	45.631778	46.845389	72.331222
263.670766	41.505500	41.505500	34.223833	62.136889	63.350500	76.700222
264.051102	-38.350111	-38.350111	35.680167	-39.563722	50.243500	18.689611
264.431406	7.038944	7.038944	32.524778	-12.378833	5.825333	0.970889
264.811680	-27.427611	-27.427611	42.961833	44.175444	72.088500	-11.650667
265.191922	59.224222	59.224222	129.613667	49.515333	75.001167	66.505889
265.572133	36.651056	36.651056	51.214389	35.437444	-56.797000	5.097167
265.952313	58.010611	58.010611	16.747833	39.806444	31.311167	115.050333
266.332461	38.107389	38.107389	25.971278	42.961833	-12.864278	8.980722
266.712578	12.864278	12.864278	-7.767111	4.369000	-5.339889	-49.029889
267.092665	63.107778	63.107778	6.068056	65.535000	69.175833	-40.049167
267.472719	40.534611	40.534611	68.447667	49.029889	4.126278	21.116833
267.852743	55.826111	55.826111	86.166389	93.448056	72.816667	86.166389
268.232735	33.252944	33.252944	44.175444	23.544056	47.816278	89.079056
268.612696	-11.650667	-11.650667	21.116833	25.971278	23.544056	4.126278
268.992626	29.854833	29.854833	106.312333	74.758444	94.176222	57.767889
269.372524	-1.699056	-1.699056	3.155389	-25.971278	55.340667	-6.553500
269.752391	107.768667	107.768667	56.797000	48.301722	153.885889	110.195889
270.132226	3.155389	3.155389	74.758444	-12.621556	15.291500	-21.116833
270.512030	-23.786778	-23.786778	46.602667	47.816278	-22.573167	-46.845389
270.891803	31.068444	31.068444	45.631778	22.573167	10.437056	75.972056
271.271545	51.942556	51.942556	60.437833	33.738389	67.719500	73.787556
271.651255	30.825722	30.825722	25.971278	19.903222	33.252944	22.330444
272.030933	82.768278	82.768278	22.087722	56.068833	103.399667	68.204944
272.410580	17.961444	17.961444	15.534222	13.107000	81.069222	64.078667
272.790196	40.049167	40.049167	3.640833	49.758056	20.631389	31.553889
273.169780	33.010222	33.010222	45.146333	37.864667	16.019667	60.923278
273.549332	50.971667	50.971667	31.553889	26.699444	14.563333	31.553889
273.928853	59.952389	59.952389	50.243500	90.292667	80.583778	95.147111
274.308343	49.029889	49.029889	28.398500	19.903222	84.224611	-32.282056
274.687800	5.339889	5.339889	-15.291500	-1.941778	-12.864278	-3.155389
275.067227	99.030667	99.030667	103.885111	65.049556	80.826500	35.922889
275.446622	58.738778	58.738778	59.952389	27.184889	93.933500	16.262389
275.825985	89.079056	89.079056	79.370167	50.243500	62.379611	83.011000
276.205316	17.718722	17.718722	52.913444	12.864278	14.077889	15.291500
276.584616	80.098333	80.098333	49.758056	37.621944	89.807222	88.593611
276.963885	69.175833	69.175833	71.603056	71.603056	46.117222	101.943333
277.343121	56.311556	56.311556	80.583778	73.302111	33.252944	25.971278
277.722326	133.497222	133.497222	95.875278	83.739167	97.088889	112.865833
278.101499	69.661278	69.661278	47.816278	44.175444	41.748222	58.738778
278.480641	17.961444	17.961444	36.165611	17.961444	32.524778	49.515333
278.859751	18.689611	18.689611	62.379611	-17.718722	27.184889	-4.369000
279.238829	74.030278	74.030278	-15.776944	20.631389	70.389444	-29.126667
279.617875	33.010222	33.010222	26.942167	1.456333	41.505500	-31.311167
279.996890	13.592444	13.592444	-20.388667	-0.970889	-3.398111	42.719111
280.375873	15.534222	15.534222	11.893389	22.815889	13.107000	20.388667
280.754824	-5.825333	-5.825333	9.951611	7.524389	20.874111	26.942167
281.133743	-26.214000	-26.214000	12.621556	-31.068444	-29.854833	-57.767889
281.512631	59.466944	59.466944	32.767500	26.699444	31.553889	35.194722
281.891486	-12.864278	-12.864278	22.330444	12.621556	38.107389	-11.650667
282.270310	38.835556	38.835556	19.417778	30.340278	15.776944	67.962222
282.649102	45.389056	45.389056	63.593222	11.407944	11.407944	74.515722
283.027862	72.816667	72.816667	-1.213611	-3.640833	-19.417778	32.767500
283.406590	48.787167	48.787167	53.641611	-9.466167	37.864667	-8.252556
283.785286	8.738000	8.738000	24.514944	26.942167	-3.398111	31.796611
284.163950	51.214389	51.214389	137.380778	87.622722	58.496056	68.204944
284.542582	40.049167	40.049167	19.417778	29.126667	59.466944	20.631389
284.921183	30.340278	30.340278	35.194722	60.680556	83.739167	-14.563333
285.299751	-14.806056	-14.806056	-8.738000	-46.359944	16.747833	16.747833
285.678287	65.049556	65.049556	35.922889	54.127056	16.505111	41.990944
286.056792	0.728167	0.728167	9.223444	28.641222	25.000389	22.573167
286.435264	81.554667	81.554667	23.301333	16.019667	-33.738389	24.514944
286.813704	-25.971278	-25.971278	9.223444	6.796222	1.941778	-19.903222
287.192112	61.408722	61.408722	86.894556	68.690389	84.467333	58.981500
287.570489	18.932333	18.932333	20.145944	8.009833	5.582611	56.554278
287.948833	120.632944	120.632944	98.787944	126.701000	69.661278	73.302111
288.327145	41.748222	41.748222	4.126278	8.980722	69.661278	61.166000
288.705425	44.903611	44.903611	36.408333	32.767500	53.398889	49.758056
289.083672	-5.339889	-5.339889	-2.912667	48.059000	21.359556	72.331222
289.461888	22.330444	22.330444	39.321000	51.457111	59.952389	67.234056
289.840071	36.893778	36.893778	107.283222	-5.582611	-0.728167	63.593222
290.218223	6.310778	6.310778	5.097167	24.514944	-5.825333	39.078278
290.596342	48.544444	48.544444	-38.835556	12.136111	-36.408333	21.845000
290.974429	-17.961444	-17.961444	-11.893389	-2.184500	-21.602278	-30.097556
291.352483	54.855222	54.855222	26.942167	-5.825333	31.796611	23.301333
291.730506	18.932333	18.932333	52.913444	66.263167	62.622333	41.990944
292.108496	7.281667	7.281667	7.281667	3.640833	-69.175833	-16.990556
292.486454	-2.669944	-2.669944	45.874500	16.747833	45.874500	-2.669944
292.864379	-7.281667	-7.281667	-33.981111	30.340278	21.845000	18.204167
293.242273	31.068444	31.068444	9.223444	31.068444	12.864278	6.796222
293.620134	81.554667	81.554667	107.040500	75.486611	64.564111	46.359944
293.997963	93.205333	93.205333	56.797000	77.428389	62.865056	81.069222
294.375759	15.291500	15.291500	37.136500	9.223444	-28.398500	-24.757667
294.753523	25.485833	25.485833	27.913056	42.476389	60.680556	3.640833
295.131255	16.262389	16.262389	104.856000	12.621556	49.029889	4.126278
295.508954	75.001167	75.001167	58.010611	89.564500	53.156167	58.010611
295.886621	21.359556	21.359556	31.068444	-46.602667	-4.126278	12.864278
296.264255	236.168722	236.168722	197.333167	175.488167	200.974000	122.089278
296.641857	62.136889	62.136889	48.787167	39.078278	54.855222	7.524389
297.019427	85.195500	85.195500	83.981889	126.458278	137.380778	77.913833
297.396964	39.806444	39.806444	-24.514944	21.602278	20.388667	21.602278
297.774469	19.175056	19.175056	25.243111	19.175056	11.893389	99.273389
298.151941	66.991333	66.991333	113.108556	77.913833	7.524389	52.428000
298.529380	-10.922500	-10.922500	58.253333	58.253333	91.020833	13.349722
298.906788	-16.505111	-16.505111	-27.427611	28.398500	-20.145944	-38.350111
299.284162	123.302889	123.302889	175.488167	203.401222	130.584556	205.828444
299.661504	46.117222	46.117222	131.070000	69.175833	63.107778	50.971667
300.038814	72.331222	72.331222	4.369000	66.263167	-4.126278	32.282056
300.416090	31.796611	31.796611	69.418556	70.632167	14.806056	24.514944
300.793335	90.049944	90.049944	133.739944	63.350500	60.923278	116.749389
301.170546	6.796222	6.796222	6.796222	-46.602667	0.728167	16.505111
301.547726	52.670722	52.670722	5.339889	-14.077889	4.126278	63.593222
301.924872	60.195111	60.195111	4.369000	57.767889	44.418167	-19.903222
302.301986	55.583389	55.583389	66.505889	72.573944	45.874500	93.205333
302.679067	59.224222	59.224222	26.456722	90.778111	65.292278	90.778111
303.056115	-1.213611	-1.213611	-9.708889	36.408333	43.690000	-15.776944
303.433131	2.427222	2.427222	-26.699444	14.563333	46.117222	-0.000000
303.810114	48.787167	48.787167	92.477167	102.186056	66.991333	66.991333
304.187064	-0.485444	-0.485444	9.223444	-46.602667	9.223444	-8.980722
304.563982	59.709667	59.709667	117.963000	71.845778	50.000778	18.446889
304.940866	1.699056	1.699056	52.670722	17.476000	12.621556	11.407944
305.317718	3.155389	3.155389	-11.407944	16.505111	1.941778	10.437056
305.694537	-75.486611	-75.486611	-48.787167	7.038944	3.398111	-43.932722
306.071324	-27.427611	-27.427611	66.020444	36.893778	78.156556	53.884333
306.448077	38.350111	38.350111	28.641222	11.650667	91.749000	51.699833
306.824798	53.884333	53.884333	113.351278	21.116833	57.525167	33.252944
307.201486	41.020056	41.020056	4.611722	42.233667	20.388667	44.660889
307.578141	-20.631389	-20.631389	32.767500	-33.981111	-44.903611	-27.913056
307.954763	15.048778	15.048778	-0.728167	11.407944	-12.864278	-10.437056
308.331352	62.622333	62.622333	33.495667	50.486222	43.204556	69.904000
308.707908	-6.068056	-6.068056	2.427222	35.194722	10.922500	50.971667
309.084432	-7.524389	-7.524389	9.466167	11.893389	-3.883556	-2.669944
309.460922	88.108167	88.108167	43.204556	33.495667	18.932333	15.291500
309.837379	27.913056	27.913056	60.680556	23.058611	76.457500	30.340278
310.213804	53.398889	53.398889	50.971667	67.962222	74.030278	20.631389
310.590195	79.855611	79.855611	66.505889	14.320611	62.865056	38.592833
310.966554	2.184500	2.184500	108.982278	54.369778	28.883944	58.010611
311.342879	25.243111	25.243111	13.107000	71.360333	-3.883556	-34.223833
311.719172	37.621944	37.621944	24.272222	36.408333	43.690000	23.058611
312.095431	9.223444	9.223444	-23.544056	-2.912667	27.427611	40.777333
312.471657	-21.602278	-21.602278	40.291889	23.301333	14.806056	46.359944
312.847851	108.011389	108.011389	114.079444	208.741111	168.691944	149.274167
313.224011	22.815889	22.815889	13.107000	51.942556	-5.097167	20.388667
313.600138	-20.145944	-20.145944	15.048778	13.835167	-35.922889	-6.796222
313.976232	20.145944	20.145944	73.544833	90.535389	49.272611	4.369000
314.352292	26.699444	26.699444	37.621944	42.476389	75.243889	65.535000
314.728320	56.311556	56.311556	61.166000	51.457111	96.360722	62.379611
315.104314	100.729722	100.729722	19.417778	50.971667	72.816667	61.894167
315.480275	-7.524389	-7.524389	-45.146333	7.038944	25.243111	3.398111
315.856203	105.584167	105.584167	81.311944	97.088889	41.262778	112.865833
316.232098	45.874500	45.874500	58.010611	16.747833	59.224222	34.952000
316.607960	15.048778	15.048778	69.661278	42.961833	80.583778	61.166000
316.983788	30.097556	30.097556	45.874500	20.388667	95.632556	55.583389
317.359583	55.340667	55.340667	32.282056	65.049556	71.117611	21.359556
317.735345	16.019667	16.019667	31.796611	81.554667	69.418556	57.282444
318.111073	20.388667	20.388667	4.611722	-11.165222	-60.923278	-8.738000
318.486769	-21.116833	-21.116833	22.573167	6.796222	-52.670722	-12.621556
318.862430	31.311167	31.311167	48.301722	20.388667	65.292278	10.679778
319.238059	36.165611	36.165611	26.456722	61.651444	61.651444	60.437833
319.613654	17.718722	17.718722	51.699833	3.155389	25.000389	14.077889
319.989216	51.942556	51.942556	7.038944	39.806444	9.466167	30.097556
320.364744	-0.970889	-0.970889	-17.961444	13.592444	-14.320611	-33.738389
320.740239	32.282056	32.282056	95.389833	69.904000	51.699833	84.467333
321.115701	3.398111	3.398111	28.883944	7.038944	-25.728556	-45.146333
321.491129	18.204167	18.204167	-24.272222	-10.922500	46.117222	-21.845000
321.866524	16.505111	16.505111	17.718722	51.699833	10.437056	18.932333
322.241885	83.981889	83.981889	26.942167	43.932722	22.087722	13.592444
322.617213	62.865056	62.865056	53.156167	5.825333	19.175056	19.175056
322.992507	128.885500	128.885500	97.331611	124.031056	80.341056	75.486611
323.367768	65.535000	65.535000	61.894167	108.011389	69.175833	94.661667
323.742995	7.281667	7.281667	84.952778	-3.640833	42.476389	41.262778
324.118189	43.690000	43.690000	65.535000	65.535000	42.476389	55.826111
324.493349	61.166000	61.166000	-18.932333	-16.505111	35.680167	49.029889
324.868475	46.117222	46.117222	12.136111	94.661667	65.535000	76.457500
325.243568	15.776944	15.776944	38.835556	32.767500	12.136111	50.971667
325.618628	-15.291500	-15.291500	6.553500	-23.786778	16.262389	-84.467333
325.993654	58.253333	58.253333	52.185278	47.330833	82.525556	63.107778
326.368646	13.349722	13.349722	48.544444	53.398889	41.262778	53.398889
326.743604	14.320611	14.320611	-14.806056	-14.806056	-26.942167	15.534222
327.118529	5.339889	5.339889	11.407944	62.379611	33.252944	4.126278
327.493421	75.729333	75.729333	13.835167	23.544056	40.534611	-3.155389
327.868278	-18.689611	-18.689611	23.786778	11.650667	-33.252944	15.291500
328.243102	-3.640833	-3.640833	8.495278	48.544444	29.126667	44.903611
328.617892	44.903611	44.903611	-4.854444	-20.631389	-9.708889	-21.845000
328.992648	115.778500	115.778500	89.079056	56.311556	102.428778	86.651833
329.367371	116.021222	116.021222	100.244278	-6.553500	78.399278	84.467333
329.742060	52.670722	52.670722	70.874889	55.097944	104.856000	17.476000
330.116715	136.652611	136.652611	92.962611	45.631778	99.030667	86.894556
330.491336	67.476778	67.476778	60.195111	55.340667	56.554278	73.544833
330.865924	88.108167	88.108167	20.145944	122.089278	63.835944	45.631778
331.240477	74.758444	74.758444	97.817056	137.866222	106.312333	51.699833
331.614997	25.971278	25.971278	16.262389	30.825722	81.797389	102.428778
331.989483	101.943333	101.943333	30.340278	4.854444	52.185278	27.913056
332.363935	38.592833	38.592833	-16.019667	37.379222	48.301722	-7.524389
332.738354	42.476389	42.476389	46.117222	60.680556	44.903611	103.156944
333.112738	133.739944	133.739944	36.651056	82.768278	45.146333	31.796611
333.487088	6.553500	6.553500	-49.272611	49.029889	45.389056	-22.573167
333.861405	19.903222	19.903222	55.097944	50.243500	57.525167	79.370167
334.235687	68.447667	68.447667	69.661278	73.302111	74.515722	63.593222
334.609936	63.107778	63.107778	15.776944	33.981111	27.913056	36.408333
334.984150	1.456333	1.456333	34.223833	56.068833	71.845778	82.768278
335.358331	13.107000	13.107000	60.437833	41.020056	17.961444	-1.456333
335.732478	61.651444	61.651444	34.952000	-0.242722	4.611722	27.670333
336.106590	28.883944	28.883944	68.933111	7.038944	34.952000	45.874500
336.480669	79.127444	79.127444	75.486611	47.573556	110.681333	110.681333
336.854713	36.651056	36.651056	54.855222	23.301333	-3.398111	45.146333
337.228724	32.767500	32.767500	10.922500	67.962222	19.417778	35.194722
337.602700	29.854833	29.854833	134.225389	63.835944	118.448444	99.030667
337.976642	112.137667	112.137667	96.360722	55.097944	104.856000	78.156556
338.350550	14.320611	14.320611	21.602278	14.320611	61.651444	49.515333
338.724424	44.903611	44.903611	18.204167	41.262778	-4.854444	-14.563333
339.098264	-30.097556	-30.097556	19.660500	-5.825333	19.660500	-11.893389
339.472070	64.078667	64.078667	-0.242722	43.447278	51.942556	41.020056
339.845842	59.224222	59.224222	47.088111	20.388667	88.350889	54.369778
340.219579	-11.893389	-11.893389	66.991333	-55.583389	2.669944	-25.243111
340.593282	49.758056	49.758056	42.476389	-2.427222	12.136111	3.640833
340.966951	96.118000	96.118000	88.836333	60.923278	63.350500	74.273000
341.340586	-2.184500	-2.184500	0.242722	12.378833	-34.952000	29.369389
341.714186	15.776944	15.776944	9.708889	-6.068056	-20.631389	-18.204167
342.087752	57.282444	57.282444	60.923278	59.709667	83.981889	33.010222
342.461284	-18.932333	-18.932333	-15.291500	39.321000	32.039333	35.680167
342.834782	-36.408333	-36.408333	21.845000	30.340278	8.495278	49.758056
343.208245	27.913056	27.913056	106.797778	99.516111	47.330833	23.058611
343.581674	29.369389	29.369389	7.524389	-0.970889	-10.679778	-14.320611
343.955069	37.864667	37.864667	75.486611	35.437444	0.242722	6.310778
344.328429	-18.689611	-18.689611	-17.476000	-76.942944	16.505111	-40.534611
344.701755	28.155778	28.155778	-0.970889	25.728556	18.446889	-28.883944
345.075047	17.233278	17.233278	-28.883944	7.524389	-5.825333	-5.825333
345.448304	47.088111	47.088111	20.388667	78.642000	10.679778	60.437833
345.821526	-34.709278	-34.709278	-18.932333	-11.650667	-8.009833	-18.932333
346.194715	59.709667	59.709667	46.359944	39.078278	18.446889	23.301333
346.567869	15.048778	15.048778	47.816278	32.039333	55.097944	1.699056
346.940988	2.427222	2.427222	-8.495278	26.699444	27.913056	-25.485833
347.314073	-48.301722	-48.301722	20.874111	-33.738389	-8.252556	22.087722
347.687123	79.370167	79.370167	75.729333	61.166000	62.379611	50.243500
348.060139	-2.669944	-2.669944	-45.146333	28.883944	-3.883556	44.660889
348.433121	67.476778	67.476778	4.369000	-11.407944	20.145944	-12.621556
348.806067	52.428000	52.428000	26.942167	42.719111	98.545222	33.010222
349.178980	9.223444	9.223444	68.690389	41.990944	23.786778	50.486222
349.551858	103.642389	103.642389	103.642389	158.254889	83.011000	137.623500
349.924701	61.166000	61.166000	106.069611	39.321000	68.447667	21.116833
350.297509	30.340278	30.340278	95.875278	70.389444	1.213611	41.262778
350.670283	52.185278	52.185278	36.408333	24.272222	35.194722	15.776944
351.043023	24.757667	24.757667	63.593222	41.748222	5.339889	39.321000
351.415727	-34.709278	-34.709278	17.476000	-38.350111	-32.282056	34.466556
351.788397	39.563722	39.563722	83.253722	112.380389	100.244278	90.535389
352.161033	28.398500	28.398500	56.311556	73.302111	8.980722	70.874889
352.533633	95.147111	95.147111	66.020444	85.438222	103.642389	72.088500
352.906199	56.554278	56.554278	37.136500	45.631778	22.573167	40.777333
353.278731	41.748222	41.748222	40.534611	58.738778	-26.214000	13.835167
353.651227	47.088111	47.088111	15.534222	38.592833	4.611722	-3.883556
354.023689	86.894556	86.894556	68.690389	78.399278	58.981500	63.835944
354.396116	32.767500	32.767500	25.485833	66.748611	67.962222	50.971667
354.768508	29.126667	29.126667	-43.690000	12.136111	-20.631389	71.603056
355.140866	72.088500	72.088500	34.466556	53.884333	61.166000	36.893778
355.513188	2.912667	2.912667	22.330444	30.825722	-29.854833	-18.932333
355.885476	10.194333	10.194333	42.961833	10.194333	35.680167	30.825722
356.257729	77.913833	77.913833	45.146333	76.700222	82.768278	17.233278
356.629947	65.049556	65.049556	14.077889	51.699833	49.272611	45.631778
357.002130	38.350111	38.350111	27.427611	33.495667	68.690389	68.690389
357.374279	23.301333	23.301333	63.350500	-10.679778	54.855222	47.573556
357.746392	82.768278	82.768278	56.068833	97.331611	43.932722	83.981889
358.118471	110.681333	110.681333	25.728556	82.768278	70.632167	39.078278
358.490514	45.631778	45.631778	20.145944	56.554278	85.680944	8.009833
358.862523	113.594000	113.594000	77.185667	88.108167	89.321778	90.535389
359.234497	120.632944	120.632944	75.729333	40.534611	27.184889	87.865444
359.606436	-9.708889	-9.708889	-25.485833	54.612500	2.427222	3.640833
359.978339	5.582611	5.582611	-13.835167	1.941778	-0.485444	-24.757667
360.350208	107.283222	107.283222	118.205722	121.846556	84.224611	89.079056
360.722042	-8.738000	-8.738000	16.747833	-7.524389	26.456722	82.282833
361.093841	21.116833	21.116833	58.738778	55.097944	-1.941778	58.738778
361.465604	78.642000	78.642000	113.836722	87.137278	37.379222	110.195889
361.837333	52.185278	52.185278	63.107778	30.340278	74.030278	88.593611
362.209026	56.797000	56.797000	37.379222	-39.078278	38.592833	-3.883556
362.580685	31.068444	31.068444	21.359556	46.845389	-29.612111	16.505111
362.952308	91.020833	91.020833	75.243889	76.457500	71.603056	65.535000
363.323896	36.893778	36.893778	-16.505111	24.757667	39.321000	56.311556
363.695449	13.592444	13.592444	-34.952000	2.669944	-58.010611	-26.456722
364.066967	11.407944	11.407944	33.252944	49.029889	32.039333	93.933500
364.438450	66.505889	66.505889	71.360333	132.040889	93.205333	132.040889
364.809897	14.077889	14.077889	1.941778	-27.184889	37.136500	28.641222
365.181310	77.671111	77.671111	50.971667	57.039722	108.011389	61.894167
365.552687	49.272611	49.272611	49.272611	-49.029889	-18.689611	-21.116833
365.924028	85.438222	85.438222	27.184889	55.097944	59.952389	38.107389
366.295335	-29.612111	-29.612111	-1.699056	-33.252944	-2.912667	3.155389
366.666606	-3.398111	-3.398111	30.583000	-15.534222	28.155778	31.796611
367.037842	132.526333	132.526333	87.622722	64.564111	75.486611	86.409111
367.409043	-6.553500	-6.553500	28.641222	31.068444	-5.339889	-6.553500
367.780209	-13.592444	-13.592444	-3.883556	8.252556	27.670333	-66.991333
368.151339	69.904000	69.904000	41.990944	-10.194333	58.981500	11.650667
368.522434	36.408333	36.408333	40.049167	78.884722	80.098333	52.185278
368.893493	52.428000	52.428000	-26.456722	-17.961444	9.951611	1.456333
369.264517	38.107389	38.107389	-3.155389	44.175444	-4.369000	13.835167
369.635506	27.427611	27.427611	61.408722	48.059000	41.990944	-18.689611
370.006459	3.640833	3.640833	14.563333	-2.427222	-24.272222	44.903611
370.377377	2.427222	2.427222	27.913056	-9.708889	-30.340278	10.922500
370.748260	8.495278	8.495278	71.603056	120.147500	33.981111	55.826111
371.119107	57.525167	57.525167	27.184889	23.544056	29.612111	58.738778
371.489918	15.776944	15.776944	44.903611	-19.417778	-21.845000	-54.612500
371.860694	-30.097556	-30.097556	-5.825333	-48.301722	-51.942556	-36.165611
372.231435	2.184500	2.184500	19.175056	39.806444	55.583389	34.952000
372.602140	86.166389	86.166389	18.204167	60.680556	29.126667	21.845000
372.972809	22.330444	22.330444	21.116833	81.797389	34.466556	12.621556
373.343444	13.592444	13.592444	66.991333	0.242722	43.932722	52.428000
373.714042	53.156167	53.156167	53.156167	28.883944	67.719500	38.592833
374.084605	95.632556	95.632556	41.020056	49.515333	98.059778	117.477556
374.455132	29.854833	29.854833	17.718722	52.913444	-10.194333	51.699833
374.825624	9.951611	9.951611	56.068833	25.728556	65.777722	47.573556
375.196080	14.806056	14.806056	51.214389	25.728556	56.068833	36.651056
375.566501	-26.456722	-26.456722	29.369389	64.564111	33.010222	50.000778
375.936885	15.776944	15.776944	8.495278	14.563333	41.262778	-64.321389
376.307235	-7.767111	-7.767111	-8.980722	-33.252944	9.223444	-32.039333
376.677548	105.098722	105.098722	123.302889	124.516500	88.108167	143.934278
377.047826	-8.980722	-8.980722	22.573167	21.359556	33.495667	-19.903222
377.418068	52.913444	52.913444	62.622333	37.136500	12.864278	46.845389
377.788275	87.622722	87.622722	91.263556	73.059389	37.864667	104.613278
378.158445	46.602667	46.602667	33.252944	29.612111	-6.796222	6.553500
378.528580	19.660500	19.660500	42.719111	37.864667	7.524389	-30.097556
378.898679	72.816667	72.816667	42.476389	69.175833	35.194722	48.544444
379.268743	2.427222	2.427222	-50.971667	-12.136111	31.553889	4.854444
379.638770	72.573944	72.573944	87.137278	102.914222	85.923667	56.797000
380.008762	71.360333	71.360333	61.651444	22.815889	68.933111	73.787556
380.378718	79.612889	79.612889	108.739556	94.176222	52.913444	114.807611
380.748638	-1.699056	-1.699056	63.835944	65.049556	60.195111	28.641222
381.118523	-7.281667	-7.281667	-1.213611	16.990556	-0.000000	35.194722
381.488371	13.835167	13.835167	46.602667	41.748222	-11.650667	52.670722
381.858184	-32.282056	-32.282056	-33.495667	15.048778	-9.223444	19.903222
382.227960	-10.679778	-10.679778	26.942167	16.019667	-0.970889	50.000778
382.597701	19.903222	19.903222	-0.728167	-16.505111	12.621556	21.116833
382.967406	4.854444	4.854444	33.981111	29.126667	20.631389	4.854444
383.337075	17.718722	17.718722	-1.699056	58.981500	18.932333	-6.553500
383.706708	16.990556	16.990556	54.612500	-12.136111	71.603056	53.398889
384.076304	31.553889	31.553889	13.349722	47.330833	26.699444	66.748611
384.445865	45.631778	45.631778	49.272611	21.359556	21.359556	44.418167
384.815390	43.447278	43.447278	62.865056	38.592833	33.738389	65.292278
385.184879	-25.728556	-25.728556	-2.669944	49.515333	-7.524389	-50.000778
385.554332	-50.243500	-50.243500	-13.835167	15.291500	-19.903222	5.582611
385.923749	68.690389	68.690389	86.894556	65.049556	26.214000	84.467333
386.293130	112.137667	112.137667	61.166000	113.351278	148.546000	120.632944
386.662474	-0.970889	-0.970889	1.456333	42.719111	-20.388667	46.359944
387.031783	4.854444	4.854444	9.708889	-13.349722	29.126667	14.563333
387.401055	11.407944	11.407944	-29.854833	29.612111	-34.709278	23.544056
387.770292	-0.485444	-0.485444	44.418167	14.077889	32.282056	86.894556
388.139492	-11.650667	-11.650667	53.884333	11.407944	-14.077889	-1.941778
388.508656	28.398500	28.398500	10.194333	72.088500	0.485444	46.602667
388.877784	26.699444	26.699444	32.767500	16.990556	29.126667	15.776944
389.246876	11.893389	11.893389	55.583389	15.534222	-23.301333	0.970889
389.615931	34.709278	34.709278	45.631778	72.331222	12.864278	55.340667
389.984950	-41.505500	-41.505500	4.611722	-33.010222	9.466167	19.175056
390.353933	77.671111	77.671111	74.030278	64.321389	133.497222	61.894167
390.722880	43.690000	43.690000	131.070000	103.156944	66.748611	74.030278
391.091791	-54.369778	-54.369778	-30.097556	16.019667	52.428000	20.874111
391.460665	62.622333	62.622333	123.302889	79.612889	67.476778	86.894556
391.829503	83.739167	83.739167	72.816667	48.544444	80.098333	92.234444
392.198304	125.001944	125.001944	54.612500	-3.640833	8.495278	78.884722
392.567070	0.728167	0.728167	69.904000	14.077889	31.068444	18.932333
392.935799	23.058611	23.058611	44.903611	32.767500	26.699444	0.000000
393.304491	50.000778	50.000778	33.010222	79.127444	26.942167	39.078278
393.673148	73.059389	73.059389	86.409111	34.223833	53.641611	73.059389
394.041768	0.242722	0.242722	40.291889	11.165222	39.078278	6.310778
394.410351	66.505889	66.505889	49.515333	79.855611	87.137278	41.020056
394.778898	116.749389	116.749389	109.467722	97.331611	99.758833	134.953556
395.147409	128.885500	128.885500	139.808000	113.108556	115.535778	149.516889
395.515883	8.980722	8.980722	-22.573167	-44.418167	35.680167	15.048778
395.884321	30.340278	30.340278	47.330833	82.525556	-20.631389	52.185278
396.252722	86.166389	86.166389	100.729722	57.039722	49.758056	100.729722
396.621087	18.446889	18.446889	45.146333	8.738000	36.651056	92.477167
396.989415	4.369000	4.369000	11.650667	0.728167	-5.339889	27.427611
397.357707	4.611722	4.611722	73.787556	89.564500	84.710056	95.632556
397.725962	14.563333	14.563333	50.971667	41.262778	31.553889	10.922500
398.094181	13.835167	13.835167	49.029889	-6.796222	22.330444	4.126278
398.462363	49.029889	49.029889	55.097944	30.825722	21.116833	46.602667
398.830508	-78.156556	-78.156556	52.913444	-25.971278	45.631778	-17.476000
399.198617	47.816278	47.816278	42.961833	78.156556	45.389056	129.128222
399.566689	8.738000	8.738000	12.378833	48.787167	16.019667	77.913833
399.934725	-26.942167	-26.942167	28.883944	62.865056	53.156167	21.602278
400.302724	62.865056	62.865056	15.534222	28.883944	-12.378833	8.252556
400.670687	9.223444	9.223444	44.418167	45.631778	6.796222	39.563722
401.038612	57.282444	57.282444	20.874111	35.437444	37.864667	34.223833
401.406501	18.689611	18.689611	8.980722	25.971278	22.330444	50.243500
401.774354	-28.155778	-28.155778	14.320611	30.097556	3.398111	33.738389
402.142169	54.369778	54.369778	17.961444	32.524778	59.224222	15.534222
402.509948	40.777333	40.777333	34.709278	94.176222	68.690389	65.049556
402.877690	26.699444	26.699444	64.321389	43.690000	35.194722	-8.495278
403.245396	44.175444	44.175444	18.689611	45.389056	19.903222	42.961833
403.613064	-0.242722	-0.242722	8.252556	33.738389	-39.078278	36.165611
403.980696	39.563722	39.563722	-4.126278	-2.912667	20.145944	26.214000
404.348291	25.000389	25.000389	-10.194333	55.340667	58.981500	20.145944
404.715849	22.087722	22.087722	-8.252556	54.855222	-0.970889	54.855222
405.083370	27.913056	27.913056	47.330833	-8.495278	24.272222	-33.981111
405.450855	34.466556	34.466556	5.339889	13.835167	-12.864278	46.602667
405.818303	65.535000	65.535000	23.058611	57.039722	106.797778	37.621944
406.185713	-41.748222	-41.748222	0.728167	-59.952389	-2.912667	-75.729333
406.553087	53.398889	53.398889	92.234444	88.593611	67.962222	40.049167
406.920424	84.952778	84.952778	31.553889	42.476389	49.758056	72.816667
407.287724	15.776944	15.776944	36.408333	-58.253333	12.136111	-3.640833
407.654987	31.796611	31.796611	43.932722	20.874111	36.651056	51.214389
408.022213	41.020056	41.020056	10.679778	59.224222	94.418944	102.914222
408.389402	75.486611	75.486611	12.378833	65.777722	43.932722	37.864667
408.756554	87.622722	87.622722	64.564111	115.535778	41.505500	65.777722
409.123669	58.253333	58.253333	74.030278	78.884722	29.126667	60.680556
409.490748	29.854833	29.854833	48.059000	48.059000	60.195111	17.718722
409.857789	30.097556	30.097556	33.738389	65.292278	21.602278	25.243111
410.224793	51.699833	51.699833	15.291500	66.263167	49.272611	11.650667
410.591760	30.097556	30.097556	3.398111	8.252556	21.602278	2.184500
410.958689	94.904389	94.904389	6.310778	23.301333	-24.029500	23.301333
411.325582	27.913056	27.913056	33.981111	64.321389	44.903611	57.039722
411.692438	27.184889	27.184889	34.466556	-15.291500	-26.214000	24.757667
412.059256	78.156556	78.156556	61.166000	93.933500	74.515722	59.952389
412.426038	36.893778	36.893778	11.407944	39.321000	73.302111	29.612111
412.792782	74.030278	74.030278	9.708889	12.136111	46.117222	43.690000
413.159489	118.448444	118.448444	200.974000	114.807611	124.516500	120.875667
413.526159	8.252556	8.252556	34.952000	44.660889	-12.378833	55.583389
413.892792	-21.602278	-21.602278	36.651056	29.369389	51.214389	13.592444
414.259387	41.262778	41.262778	35.194722	1.213611	97.088889	4.854444
414.625945	11.407944	11.407944	23.544056	7.767111	1.699056	-25.000389
414.992466	88.836333	88.836333	52.428000	43.932722	0.242722	28.155778
415.358950	45.389056	45.389056	41.748222	59.952389	83.011000	51.457111
415.725396	-6.068056	-6.068056	32.767500	-8.495278	2.427222	-20.631389
416.091806	24.514944	24.514944	37.864667	-25.243111	-5.825333	3.883556
416.458177	23.786778	23.786778	67.476778	45.631778	44.418167	3.155389
416.824512	49.272611	49.272611	68.690389	31.068444	37.136500	11.650667
417.190809	11.893389	11.893389	22.815889	-2.669944	-30.583000	-16.019667
417.557069	28.155778	28.155778	65.777722	108.254111	48.787167	34.223833
417.923291	15.291500	15.291500	4.369000	5.582611	11.650667	32.282056
418.289476	19.903222	19.903222	16.262389	18.689611	16.262389	21.116833
418.655624	25.243111	25.243111	25.243111	-14.806056	5.825333	17.961444
419.021734	32.039333	32.039333	-3.155389	18.689611	57.525167	24.757667
419.387807	43.204556	43.204556	5.582611	-1.699056	41.990944	44.418167
419.753843	33.981111	33.981111	32.767500	23.058611	49.758056	61.894167
420.119841	36.408333	36.408333	32.767500	53.398889	26.699444	18.204167
420.485801	13.835167	13.835167	27.184889	38.107389	-50.486222	-22.573167
420.851724	42.476389	42.476389	77.671111	38.835556	91.020833	86.166389
421.217609	-40.291889	-40.291889	-42.719111	-24.514944	32.524778	-34.223833
421.583457	5.339889	5.339889	23.544056	64.806833	50.243500	24.757667
421.949268	47.330833	47.330833	69.175833	89.807222	33.981111	-1.213611
422.315041	-24.514944	-24.514944	13.107000	24.029500	-9.951611	13.107000
422.680776	73.544833	73.544833	45.631778	88.108167	61.408722	37.136500
423.046474	114.322167	114.322167	82.768278	69.418556	126.458278	105.826889
423.412134	26.942167	26.942167	8.738000	-20.388667	5.097167	26.942167
423.777756	-3.155389	-3.155389	-21.359556	44.175444	13.835167	-63.835944
424.143341	19.660500	19.660500	3.883556	16.019667	31.796611	-11.893389
424.508888	-39.563722	-39.563722	1.699056	-33.495667	-18.932333	22.330444
424.874398	1.699056	1.699056	16.262389	-18.932333	32.039333	32.039333
425.239870	-7.524389	-7.524389	21.602278	-47.573556	45.874500	-16.019667
425.605304	27.913056	27.913056	48.544444	16.990556	64.321389	77.671111
425.970701	44.418167	44.418167	-15.048778	51.699833	25.000389	14.077889
426.336059	6.068056	6.068056	55.826111	25.485833	-1.213611	-3.640833
426.701381	12.864278	12.864278	-1.699056	-18.689611	32.282056	-21.116833
427.066664	-66.748611	-66.748611	41.262778	-8.495278	-31.553889	-37.621944
427.431909	31.553889	31.553889	64.321389	6.068056	-6.068056	21.845000
427.797117	-27.184889	-27.184889	25.000389	18.932333	0.728167	29.854833
428.162287	48.059000	48.059000	62.622333	10.437056	17.718722	41.990944
428.527419	-3.398111	-3.398111	-14.320611	73.059389	29.369389	47.573556
428.892514	47.330833	47.330833	35.194722	23.058611	57.039722	42.476389
429.257570	70.146722	70.146722	5.825333	75.001167	94.418944	53.156167
429.622589	60.680556	60.680556	60.680556	0.000000	32.767500	23.058611
429.987570	15.776944	15.776944	10.922500	-30.340278	-2.427222	-1.213611
430.352513	35.194722	35.194722	27.913056	13.349722	27.913056	48.544444
430.717418	81.554667	81.554667	75.486611	81.554667	111.894944	110.681333
431.082285	-6.553500	-6.553500	-11.407944	55.340667	16.505111	-17.476000
431.447114	-19.175056	-19.175056	12.378833	7.524389	-3.398111	33.010222
431.811905	6.068056	6.068056	25.485833	7.281667	-29.126667	-23.058611
432.176659	2.912667	2.912667	24.757667	72.088500	32.039333	-3.155389
432.541374	66.748611	66.748611	77.671111	76.457500	55.826111	60.680556
432.906051	8.980722	8.980722	4.126278	35.680167	-15.291500	-11.650667
433.270691	28.398500	28.398500	-23.786778	-26.214000	-4.369000	-6.796222
433.635292	57.039722	57.039722	35.194722	21.845000	35.194722	47.330833
433.999855	34.709278	34.709278	67.476778	77.185667	21.359556	54.127056
434.364380	63.350500	63.350500	50.000778	42.719111	80.341056	50.000778
434.728867	11.407944	11.407944	17.476000	46.602667	18.689611	1.699056
435.093317	94.661667	94.661667	112.865833	42.476389	40.049167	74.030278
435.457728	40.049167	40.049167	92.234444	38.835556	93.448056	95.875278
435.822100	-4.611722	-4.611722	2.669944	66.991333	53.641611	13.592444
436.186435	-19.417778	-19.417778	58.253333	-15.776944	31.553889	41.262778
436.550732	97.817056	97.817056	111.166778	100.244278	85.680944	78.399278
436.914990	20.874111	20.874111	34.223833	52.428000	56.068833	65.777722
437.279210	117.477556	117.477556	61.651444	73.787556	34.952000	-16.019667
437.643392	-0.000000	-0.000000	-14.563333	6.068056	13.349722	29.126667
438.007536	-32.524778	-32.524778	12.378833	17.233278	39.078278	2.669944
438.371642	73.059389	73.059389	17.233278	26.942167	24.514944	80.341056
438.735709	83.739167	83.739167	78.884722	42.476389	7.281667	81.311944
439.099739	47.816278	47.816278	80.583778	44.175444	34.466556	16.262389
439.463730	69.661278	69.661278	96.360722	101.215167	129.128222	101.215167
439.827682	41.990944	41.990944	41.990944	26.214000	63.835944	54.127056
440.191597	61.894167	61.894167	2.427222	25.485833	21.845000	26.699444
440.555473	19.660500	19.660500	29.369389	7.524389	68.204944	18.446889
440.919310	91.749000	91.749000	55.340667	34.709278	103.885111	134.225389
441.283110	36.408333	36.408333	59.466944	89.807222	55.826111	54.612500
441.646871	31.068444	31.068444	97.817056	45.631778	71.117611	102.671500
442.010593	53.884333	53.884333	28.398500	51.457111	12.621556	35.680167
442.374278	56.797000	56.797000	42.233667	53.156167	32.524778	61.651444
442.737924	79.127444	79.127444	83.981889	68.204944	117.963000	43.932722
443.101531	96.603444	96.603444	52.913444	63.835944	41.990944	43.204556
443.465100	17.961444	17.961444	66.505889	66.505889	64.078667	100.487000
443.828631	78.156556	78.156556	25.971278	90.292667	83.011000	90.292667
444.192123	-17.718722	-17.718722	-20.145944	-4.369000	-23.786778	-8.009833
444.555577	-4.854444	-4.854444	12.136111	-15.776944	35.194722	29.126667
444.918992	38.835556	38.835556	35.194722	75.243889	57.039722	44.903611
445.282368	46.117222	46.117222	50.971667	88.593611	33.981111	78.884722
445.645707	-12.864278	-12.864278	-52.913444	4.126278	4.126278	36.893778
446.009006	27.427611	27.427611	17.718722	80.826500	-35.680167	-1.699056
446.372267	-17.961444	-17.961444	99.758833	100.972444	60.923278	70.632167
446.735490	-36.893778	-36.893778	34.709278	28.641222	10.437056	16.505111
447.098674	38.107389	38.107389	24.757667	27.184889	19.903222	66.020444
447.461819	64.078667	64.078667	15.534222	7.038944	26.456722	84.710056
447.824926	28.398500	28.398500	2.912667	13.835167	35.680167	30.825722
448.187994	20.145944	20.145944	11.650667	-36.893778	14.077889	33.495667
448.551023	48.301722	48.301722	53.156167	37.379222	81.069222	13.107000
448.914014	48.544444	48.544444	30.340278	57.039722	41.262778	76.457500
449.276966	9.466167	9.466167	-13.592444	25.243111	31.311167	31.311167
449.639880	87.137278	87.137278	27.670333	22.815889	53.156167	56.797000
450.002754	45.146333	45.146333	36.651056	64.564111	48.787167	73.059389
450.365590	-23.786778	-23.786778	49.029889	-12.864278	-5.582611	-15.291500
450.728388	62.865056	62.865056	14.320611	43.447278	50.728944	32.524778
451.091146	21.602278	21.602278	21.602278	-12.378833	-1.456333	4.611722
451.453866	38.835556	38.835556	16.990556	71.603056	104.370556	27.913056
451.816547	84.710056	84.710056	158.740333	72.573944	58.010611	19.175056
452.179189	48.544444	48.544444	67.962222	44.903611	9.708889	35.194722
452.541793	53.641611	53.641611	86.409111	29.369389	54.855222	66.991333
452.904357	44.903611	44.903611	-6.068056	18.204167	13.349722	19.417778
453.266883	55.097944	55.097944	22.330444	58.738778	27.184889	6.553500
453.629370	16.019667	16.019667	29.369389	25.728556	52.428000	9.951611
453.991818	-14.320611	-14.320611	62.136889	-7.038944	-27.670333	0.242722
454.354227	40.049167	40.049167	25.485833	84.952778	32.767500	41.262778
454.716597	56.554278	56.554278	92.962611	71.117611	90.535389	106.312333
455.078929	66.748611	66.748611	57.039722	64.321389	111.652222	33.981111
455.441221	7.767111	7.767111	38.107389	79.370167	30.825722	35.680167
455.803475	57.525167	57.525167	10.194333	33.252944	58.738778	67.234056
456.165689	20.388667	20.388667	37.379222	47.088111	-18.446889	9.466167
456.527865	31.068444	31.068444	56.554278	18.932333	67.476778	-8.980722
456.890001	90.049944	90.049944	82.768278	54.855222	80.341056	50.000778
457.252099	56.797000	56.797000	66.505889	49.515333	78.642000	53.156167
457.614157	36.651056	36.651056	26.942167	30.583000	-17.961444	62.136889
457.976177	105.826889	105.826889	48.787167	79.127444	59.709667	60.923278
458.338157	65.292278	65.292278	88.350889	82.282833	58.010611	130.827278
458.700099	17.233278	17.233278	14.806056	50.000778	53.641611	31.796611
459.062001	47.088111	47.088111	99.273389	139.322556	75.001167	83.496444
459.423864	177.429944	177.429944	178.643556	165.293833	172.575500	164.080222
459.785688	49.515333	49.515333	48.301722	71.360333	62.865056	15.534222
460.147473	18.689611	18.689611	-21.359556	0.485444	8.980722	-37.136500
460.509219	41.505500	41.505500	28.155778	53.641611	79.127444	83.981889
460.870926	14.320611	14.320611	-14.806056	-3.883556	15.534222	-26.942167
461.232593	15.291500	15.291500	-0.485444	21.359556	-23.544056	34.709278
461.594221	51.699833	51.699833	63.835944	65.049556	57.767889	43.204556
461.955810	39.563722	39.563722	37.136500	4.369000	22.573167	43.204556
462.317360	38.350111	38.350111	8.009833	21.359556	-7.767111	23.786778
462.678871	112.623111	112.623111	58.010611	45.874500	49.515333	102.914222
463.040342	30.825722	30.825722	4.126278	58.738778	41.748222	36.893778
463.401775	-0.000000	-0.000000	104.370556	64.321389	42.476389	-15.776944
463.763167	-75.001167	-75.001167	-28.883944	74.273000	-26.456722	-8.252556
464.124521	0.242722	0.242722	23.301333	40.291889	6.310778	6.310778
464.485835	89.807222	89.807222	157.769444	82.525556	100.729722	121.361111
464.847110	22.330444	22.330444	83.011000	47.816278	33.252944	34.466556
465.208346	16.262389	16.262389	19.903222	-28.641222	-16.505111	13.835167
465.569542	66.263167	66.263167	126.943722	43.204556	71.117611	27.427611
465.930699	106.555056	106.555056	62.865056	61.651444	4.611722	49.515333
466.291817	41.505500	41.505500	30.583000	42.719111	17.233278	39.078278
466.652895	28.883944	28.883944	53.156167	50.728944	15.534222	49.515333
467.013933	60.195111	60.195111	71.117611	51.699833	72.331222	29.854833
467.374933	78.884722	78.884722	84.952778	120.147500	84.952778	57.039722
467.735892	59.224222	59.224222	58.010611	108.982278	48.301722	0.970889
468.096813	105.341444	105.341444	138.108944	140.536167	112.623111	113.836722
468.457694	30.097556	30.097556	59.224222	13.107000	3.398111	21.602278
468.818535	84.467333	84.467333	45.631778	85.680944	46.845389	16.505111
469.179337	59.709667	59.709667	43.932722	74.273000	29.369389	45.146333
469.540099	99.030667	99.030667	73.544833	83.253722	68.690389	113.594000
469.900822	43.447278	43.447278	39.806444	28.883944	-2.669944	30.097556
470.261506	106.069611	106.069611	107.283222	106.069611	97.574333	103.642389
470.622149	58.981500	58.981500	58.981500	48.059000	49.272611	78.399278
470.982753	37.621944	37.621944	77.671111	16.990556	59.466944	-4.854444
471.343318	125.001944	125.001944	93.448056	125.001944	103.156944	58.253333
471.703843	39.321000	39.321000	-31.068444	-14.077889	-12.864278	-9.223444
472.064328	47.573556	47.573556	87.622722	125.244667	122.817444	92.477167
472.424774	86.166389	86.166389	60.680556	20.631389	38.835556	53.398889
472.785180	55.826111	55.826111	2.427222	71.603056	31.553889	40.049167
473.145546	-2.669944	-2.669944	4.611722	3.398111	21.602278	14.320611
473.505873	72.573944	72.573944	33.738389	14.320611	75.001167	53.156167
473.866160	-21.602278	-21.602278	13.592444	-32.524778	-15.534222	-15.534222
474.226407	13.349722	13.349722	50.971667	16.990556	58.253333	-36.408333
474.586615	77.185667	77.185667	38.350111	108.739556	106.312333	105.098722
474.946783	92.719889	92.719889	89.079056	15.048778	28.398500	66.020444
475.306911	16.747833	16.747833	49.515333	30.097556	47.088111	41.020056
475.666999	40.534611	40.534611	12.621556	6.553500	50.243500	49.029889
476.027047	51.214389	51.214389	6.310778	-14.320611	-4.611722	23.301333
476.387056	48.059000	48.059000	28.641222	56.554278	38.350111	48.059000
476.747025	48.787167	48.787167	66.991333	57.282444	34.223833	17.233278
477.106954	33.252944	33.252944	61.166000	45.389056	45.389056	75.729333
477.466843	80.341056	80.341056	92.477167	99.758833	26.942167	58.496056
477.826692	120.147500	120.147500	145.633333	143.206111	59.466944	141.992500
478.186502	118.448444	118.448444	120.875667	88.108167	74.758444	86.894556
478.546271	-19.175056	-19.175056	36.651056	40.291889	3.883556	-13.107000
478.906001	28.883944	28.883944	84.710056	70.146722	43.447278	66.505889
479.265690	18.204167	18.204167	50.971667	-2.427222	35.194722	16.990556
479.625340	41.748222	41.748222	53.884333	126.701000	84.224611	72.088500
479.984950	-42.961833	-42.961833	-12.621556	-7.767111	-44.175444	10.437056
480.344519	-5.097167	-5.097167	31.311167	47.088111	83.496444	107.768667
480.704049	12.864278	12.864278	61.408722	49.272611	54.127056	80.826500
481.063539	-17.476000	-17.476000	37.136500	32.282056	-24.757667	-25.971278
481.422989	104.370556	104.370556	49.758056	111.652222	116.506667	123.788333
481.782398	68.690389	68.690389	78.399278	102.671500	51.699833	102.671500
482.141768	54.369778	54.369778	37.379222	37.379222	14.320611	47.088111
482.501098	20.631389	20.631389	9.708889	7.281667	54.612500	41.262778
482.860387	46.845389	46.845389	32.282056	40.777333	16.505111	-7.767111
483.219637	7.767111	7.767111	76.942944	11.407944	49.029889	47.816278
483.578846	-8.252556	-8.252556	22.087722	-21.602278	-8.252556	19.660500
483.938015	52.670722	52.670722	45.389056	84.224611	81.797389	114.564889
484.297144	-15.776944	-15.776944	-38.835556	-4.854444	67.962222	18.204167
484.656233	28.155778	28.155778	43.932722	35.437444	35.437444	12.378833
485.015282	-32.767500	-32.767500	19.417778	35.194722	-16.990556	-23.058611
485.374291	25.485833	25.485833	97.088889	31.553889	53.398889	4.854444
485.733259	67.719500	67.719500	111.409500	111.409500	64.078667	45.874500
486.092187	41.990944	41.990944	34.709278	37.136500	12.864278	97.817056
486.451075	52.670722	52.670722	55.097944	115.778500	47.816278	87.865444
486.809923	55.097944	55.097944	38.107389	66.020444	64.806833	91.506278
487.168730	26.699444	26.699444	46.117222	64.321389	21.845000	21.845000
487.527497	138.108944	138.108944	174.517278	121.118389	115.050333	117.477556
487.886224	35.194722	35.194722	84.952778	12.136111	60.680556	69.175833
488.244910	27.670333	27.670333	61.651444	60.437833	62.865056	41.020056
488.603557	55.340667	55.340667	69.904000	69.904000	51.699833	100.244278
488.962162	22.573167	22.573167	41.990944	43.204556	39.563722	68.690389
489.320728	28.155778	28.155778	29.369389	6.310778	8.738000	-14.320611
489.679253	123.545611	123.545611	93.205333	111.409500	89.564500	65.292278
490.037738	64.564111	64.564111	91.263556	-11.893389	37.864667	-3.398111
490.396182	100.001556	100.001556	138.837111	84.224611	63.593222	114.564889
490.754586	63.350500	63.350500	130.099111	54.855222	51.214389	80.341056
491.112950	85.680944	85.680944	88.108167	84.467333	62.622333	66.263167
491.471273	0.485444	0.485444	39.321000	42.961833	64.806833	23.544056
491.829555	96.846167	96.846167	62.865056	53.156167	59.224222	49.515333
492.187798	41.020056	41.020056	22.815889	47.088111	26.456722	-0.242722
492.545999	6.310778	6.310778	53.641611	80.341056	71.845778	20.874111
492.904160	54.369778	54.369778	42.233667	81.069222	84.710056	71.360333
493.262281	-31.311167	-31.311167	-7.038944	24.514944	-7.038944	3.883556
493.620361	68.204944	68.204944	64.564111	115.535778	73.059389	79.127444
493.978401	-24.757667	-24.757667	28.641222	45.631778	46.845389	-0.485444
494.336400	116.506667	116.506667	46.117222	86.166389	81.311944	29.126667
494.694358	60.923278	60.923278	3.883556	0.242722	58.496056	6.310778
495.052276	8.738000	8.738000	39.078278	-36.165611	39.078278	17.233278
495.410153	1.699056	1.699056	84.224611	4.126278	64.806833	13.835167
495.767990	78.884722	78.884722	64.321389	26.699444	65.535000	38.835556
496.125786	29.854833	29.854833	1.941778	40.777333	-1.699056	33.495667
496.483541	134.225389	134.225389	35.922889	95.389833	94.176222	101.457889
496.841255	30.097556	30.097556	59.224222	79.855611	61.651444	79.855611
497.198929	28.398500	28.398500	11.407944	81.797389	70.874889	86.651833
497.556563	55.826111	55.826111	80.098333	84.952778	105.584167	101.943333
497.914155	30.097556	30.097556	-39.078278	4.611722	-13.592444	8.252556
498.271707	93.690778	93.690778	103.399667	76.700222	124.031056	130.099111
498.629218	14.806056	14.806056	-22.815889	57.282444	-20.388667	80.341056
498.986688	54.369778	54.369778	101.700611	85.923667	93.205333	102.914222
499.344118	81.311944	81.311944	71.603056	61.894167	118.933889	95.875278
499.701506	28.155778	28.155778	7.524389	40.291889	54.855222	42.719111
500.058854	65.292278	65.292278	73.787556	68.933111	-0.242722	22.815889
500.416161	81.554667	81.554667	94.904389	86.409111	71.845778	117.963000
500.773428	74.273000	74.273000	62.136889	96.118000	25.728556	85.195500
501.130653	53.156167	53.156167	-7.524389	7.038944	44.660889	54.369778
501.487837	60.437833	60.437833	85.923667	65.292278	87.137278	60.437833
501.844981	112.380389	112.380389	97.817056	84.467333	61.408722	130.584556
502.202084	43.204556	43.204556	37.136500	3.155389	-1.699056	18.932333
502.559146	95.875278	95.875278	48.544444	89.807222	74.030278	97.088889
502.916167	80.341056	80.341056	62.136889	46.359944	34.223833	74.273000
503.273146	44.418167	44.418167	63.835944	107.525944	56.554278	90.535389
503.630085	-9.708889	-9.708889	20.631389	46.117222	58.253333	35.194722
503.986984	28.398500	28.398500	85.438222	41.748222	-8.009833	68.447667
504.343841	15.048778	15.048778	67.234056	16.262389	-3.155389	21.116833
504.700657	78.642000	78.642000	42.233667	110.195889	102.914222	108.982278
505.057432	142.963389	142.963389	77.428389	51.942556	121.118389	117.477556
505.414166	24.514944	24.514944	28.155778	31.796611	23.301333	-2.184500
505.770858	46.845389	46.845389	52.913444	91.749000	57.767889	35.922889
506.127510	32.282056	32.282056	120.875667	71.117611	6.796222	73.544833
506.484121	56.068833	56.068833	70.632167	77.913833	47.573556	63.350500
506.840691	14.563333	14.563333	4.854444	21.845000	20.631389	48.544444
507.197219	-25.971278	-25.971278	-19.903222	27.427611	12.864278	99.030667
507.553707	4.126278	4.126278	-4.369000	30.825722	70.874889	83.011000
507.910153	30.583000	30.583000	51.214389	7.524389	82.768278	43.932722
508.266558	47.573556	47.573556	18.446889	1.456333	18.446889	3.883556
508.622922	53.398889	53.398889	29.126667	61.894167	21.845000	52.185278
508.979245	34.952000	34.952000	95.632556	100.487000	38.592833	58.010611
509.335527	75.972056	75.972056	108.739556	69.904000	88.108167	84.467333
509.691767	-16.747833	-16.747833	13.592444	40.291889	35.437444	57.282444
510.047966	-6.068056	-6.068056	1.213611	24.272222	-10.922500	1.213611
510.404124	0.728167	0.728167	49.272611	12.864278	48.059000	-5.339889
510.760241	62.865056	62.865056	33.738389	30.097556	41.020056	8.252556
511.116316	5.097167	5.097167	-22.815889	-3.398111	-5.825333	29.369389
511.472350	80.341056	80.341056	12.378833	51.214389	66.991333	23.301333
511.828343	19.660500	19.660500	98.545222	110.681333	63.350500	79.127444
512.184295	38.350111	38.350111	41.990944	46.845389	48.059000	58.981500
512.540205	108.496833	108.496833	22.330444	11.407944	61.166000	32.039333
512.896073	41.505500	41.505500	59.709667	42.719111	137.380778	93.690778
513.251901	43.932722	43.932722	79.127444	42.719111	76.700222	96.118000
513.607687	151.215944	151.215944	117.234833	34.709278	61.408722	62.622333
513.963431	70.632167	70.632167	59.709667	59.709667	9.951611	57.282444
514.319135	74.273000	74.273000	81.554667	62.136889	92.477167	99.758833
514.674796	38.835556	38.835556	67.962222	48.544444	61.894167	44.903611
515.030417	18.446889	18.446889	57.282444	51.214389	59.709667	57.282444
515.385996	56.797000	56.797000	14.320611	70.146722	38.592833	81.069222
515.741533	112.380389	112.380389	69.904000	56.554278	77.185667	57.767889
516.097029	38.592833	38.592833	39.806444	62.865056	2.184500	68.933111
516.452483	29.854833	29.854833	78.399278	46.845389	3.155389	37.136500
516.807896	75.486611	75.486611	71.845778	105.826889	121.603833	131.312722
517.163268	90.535389	90.535389	108.739556	54.127056	32.282056	54.127056
517.518597	35.194722	35.194722	64.321389	66.748611	89.807222	74.030278
517.873886	32.524778	32.524778	54.369778	64.078667	79.855611	83.496444
518.229132	84.952778	84.952778	16.990556	77.671111	61.894167	43.690000
518.584337	75.972056	75.972056	97.817056	85.680944	63.835944	107.525944
518.939501	48.059000	48.059000	61.408722	61.408722	8.009833	106.312333
519.294623	87.622722	87.622722	107.040500	88.836333	81.554667	96.118000
519.649703	103.642389	103.642389	81.797389	40.534611	27.184889	55.097944
520.004742	20.388667	20.388667	91.991722	41.020056	-8.738000	37.379222
520.359738	74.758444	74.758444	69.904000	75.972056	88.108167	10.437056
520.714694	16.990556	16.990556	36.408333	66.748611	41.262778	30.340278
521.069607	36.651056	36.651056	48.787167	113.108556	98.545222	82.768278
521.424479	90.049944	90.049944	104.613278	56.068833	110.681333	85.195500
521.779309	120.632944	120.632944	158.254889	93.933500	92.719889	146.118778
522.134097	72.573944	72.573944	79.855611	65.292278	82.282833	47.088111
522.488844	68.204944	68.204944	75.486611	86.409111	76.700222	65.777722
522.843549	47.330833	47.330833	89.807222	82.525556	84.952778	67.962222
523.198211	124.516500	124.516500	85.680944	69.904000	45.631778	74.758444
523.552833	34.952000	34.952000	24.029500	38.592833	28.883944	62.865056
523.907412	68.447667	68.447667	87.865444	90.292667	109.710444	91.506278
524.261949	58.010611	58.010611	-7.524389	62.865056	14.320611	-2.669944
524.616445	44.175444	44.175444	-5.582611	0.485444	22.330444	45.389056
524.970899	41.990944	41.990944	88.108167	56.554278	69.904000	67.476778
525.325311	143.448833	143.448833	183.498000	124.031056	125.244667	183.498000
525.679681	46.602667	46.602667	18.689611	51.457111	68.447667	67.234056
526.034009	73.787556	73.787556	59.224222	100.487000	77.428389	139.322556
526.388295	54.855222	54.855222	99.758833	33.010222	42.719111	107.040500
526.742539	48.301722	48.301722	95.632556	68.933111	5.825333	32.524778
527.096742	110.195889	110.195889	135.681722	164.808389	102.914222	121.118389
527.450902	99.758833	99.758833	64.564111	113.108556	76.700222	81.554667
527.805020	43.204556	43.204556	38.350111	44.418167	85.680944	54.127056
528.159096	121.603833	121.603833	120.390222	88.836333	83.981889	42.719111
528.513131	49.272611	49.272611	63.835944	44.418167	-6.553500	54.127056
528.867123	80.341056	80.341056	17.233278	75.486611	28.155778	59.709667
529.221073	68.933111	68.933111	37.379222	78.642000	67.719500	31.311167
529.574981	109.710444	109.710444	92.719889	103.642389	163.109333	164.322944
529.928847	78.642000	78.642000	111.409500	157.526722	79.855611	124.759222
530.282671	135.924444	135.924444	104.370556	166.264722	214.809167	197.818611
530.636453	170.148278	170.148278	165.293833	193.206889	224.760778	134.953556
530.990193	237.625056	237.625056	175.730889	208.498389	168.449222	181.798944
531.343891	145.876056	145.876056	121.603833	103.399667	119.176611	145.876056
531.697546	216.508222	216.508222	244.421278	181.313500	133.982667	125.487389
532.051159	148.788722	148.788722	164.565667	190.051500	181.556222	174.274556
532.404730	64.564111	64.564111	36.651056	23.301333	97.331611	109.467722
532.758259	99.030667	99.030667	16.505111	21.359556	82.040111	83.253722
533.111746	150.487778	150.487778	129.856389	192.964167	116.506667	122.574722
533.465190	111.894944	111.894944	80.341056	70.632167	53.641611	64.564111
533.818593	50.486222	50.486222	65.049556	92.962611	102.671500	50.486222
534.171952	115.293056	115.293056	81.311944	31.553889	58.253333	112.865833
534.525270	137.866222	137.866222	44.418167	107.525944	79.612889	107.525944
534.878545	124.273778	124.273778	93.933500	124.273778	131.555444	110.924056
535.231778	90.778111	90.778111	28.883944	89.564500	51.942556	95.632556
535.584969	48.544444	48.544444	72.816667	55.826111	42.476389	64.321389
535.938118	103.885111	103.885111	136.652611	119.662056	176.701778	131.798167
536.291224	68.933111	68.933111	56.797000	70.146722	68.933111	44.660889
536.644287	55.826111	55.826111	57.039722	63.107778	38.835556	61.894167
536.997309	42.476389	42.476389	94.661667	105.584167	53.398889	106.797778
537.350288	59.709667	59.709667	56.068833	28.155778	65.777722	98.545222
537.703224	23.301333	23.301333	99.758833	131.312722	33.010222	40.291889
538.056118	141.749778	141.749778	139.322556	94.418944	113.836722	151.458667
538.408970	197.333167	197.333167	153.643167	141.507056	156.070389	185.197056
538.761779	65.049556	65.049556	10.437056	105.098722	131.798167	80.826500
539.114546	75.243889	75.243889	87.380000	97.088889	83.739167	49.758056
539.467270	98.059778	98.059778	31.311167	65.292278	21.602278	78.642000
539.819951	142.477944	142.477944	130.341833	85.438222	78.156556	103.642389
540.172591	184.226167	184.226167	206.071167	204.857556	201.216722	156.313111
540.525187	93.205333	93.205333	59.224222	44.660889	121.118389	62.865056
540.877741	85.438222	85.438222	78.156556	112.137667	84.224611	120.632944
541.230253	101.943333	101.943333	178.400833	152.915000	186.896111	117.720278
541.582722	78.156556	78.156556	92.719889	92.719889	64.806833	69.661278
541.935148	110.195889	110.195889	172.090056	155.099500	145.390611	129.613667
542.287532	183.255278	183.255278	188.109722	133.497222	180.828056	161.410278
542.639873	124.273778	124.273778	169.177389	135.196278	155.827667	152.186833
542.992172	139.322556	139.322556	189.080611	118.691167	138.108944	149.031444
543.344427	236.654167	236.654167	217.236389	212.381944	183.255278	264.567222
543.696641	127.671889	127.671889	213.838278	143.448833	175.002722	154.371333
544.048811	222.090833	222.090833	226.945278	251.217500	211.168333	190.536944
544.400939	345.393722	345.393722	385.442889	363.597889	367.238722	368.452333
544.753024	347.092778	347.092778	336.170278	314.325278	350.733611	433.259167
545.105066	353.160833	353.160833	332.529444	342.238333	350.733611	287.625833
545.457066	341.024722	341.024722	324.034167	356.801667	319.179722	310.684444
545.809023	299.519222	299.519222	310.441722	334.713944	286.169500	339.568389
546.160937	272.819778	272.819778	218.207278	229.129778	231.557000	187.867000
546.512808	162.623889	162.623889	155.342222	206.313889	149.274167	186.896111
546.864636	237.139611	237.139611	198.304056	157.041278	149.759611	222.576278
547.216422	178.886278	178.886278	187.381556	180.099889	199.517667	216.508222
547.568165	274.518833	274.518833	267.237167	278.159667	255.101056	259.955500
547.919865	214.809167	214.809167	208.741111	208.741111	233.013333	209.954722
548.271522	279.373278	279.373278	219.906333	312.140778	212.624667	285.441333
548.623136	208.498389	208.498389	183.012556	230.343389	163.594778	215.780056
548.974707	243.935833	243.935833	230.586111	259.712778	269.421667	245.149444
549.326236	300.247389	300.247389	299.033778	284.470444	334.228500	302.674611
549.677721	363.840611	363.840611	326.218667	348.063667	322.577833	287.383111
550.029164	339.811111	339.811111	286.412222	288.839444	376.219444	296.121111
550.380563	372.821333	372.821333	364.326056	365.539667	391.025500	370.394111
550.731920	355.345333	355.345333	400.248944	384.472000	335.927556	294.664778
551.083233	346.121889	346.121889	350.976333	370.394111	389.811889	374.034944
551.434504	406.317000	406.317000	325.005056	374.763111	383.258389	411.171444
551.785731	379.132111	379.132111	441.026278	405.831556	417.967667	428.890167
552.136916	425.977500	425.977500	450.249722	456.317778	481.803611	464.813056
552.488057	503.891333	503.891333	560.931056	535.445222	501.464111	571.853556
552.839156	548.309500	548.309500	528.891722	553.163944	556.804778	537.387000
553.190211	645.641111	645.641111	566.756389	588.601389	569.183611	605.591944
553.541223	574.038056	574.038056	557.047500	578.892500	564.329167	625.009722
553.892193	698.069111	698.069111	749.040778	747.827167	728.409389	755.108833
554.243119	781.565556	781.565556	793.701667	797.342500	832.537222	826.469167
554.594002	844.673333	844.673333	799.769722	847.100556	841.032500	850.741389
554.944841	774.041167	774.041167	740.060056	845.644222	886.907000	886.907000
555.295638	874.528167	874.528167	913.363722	897.586778	952.199278	963.121778
555.646391	923.800778	923.800778	929.868833	917.732722	967.490778	942.004944
555.997101	1017.006111	1017.006111	967.248056	1006.083611	969.675278	990.306667
556.347768	1083.512000	1083.512000	1075.016722	1116.279500	1139.338111	1117.493111
556.698392	1063.123333	1063.123333	1100.745278	1114.095000	1149.289722	1129.871944
557.048972	1195.164222	1195.164222	1242.495056	1210.941167	1267.980889	1314.098111
557.399510	1343.952944	1343.952944	1379.147667	1305.117389	1316.039889	1345.166556
557.750004	1428.663000	1428.663000	1473.566611	1456.576056	1522.111056	1509.974944
558.100454	1397.837278	1397.837278	1414.827833	1467.013111	1494.926167	1526.480056
558.450862	1492.741667	1492.741667	1591.044167	1521.868333	1600.753056	1642.015833
558.801226	1636.433222	1636.433222	1647.355722	1650.996556	1733.522111	1735.949333
559.151546	1637.404111	1637.404111	1722.356889	1759.978833	1749.056333	1768.474111
559.501824	1747.114556	1747.114556	1818.717611	1859.980389	1823.572056	1896.388722
559.852058	1859.980389	1859.980389	1925.515389	1903.670389	1963.137333	2033.526778
560.202248	2068.236056	2068.236056	2127.703000	2019.691611	2086.440222	2160.470500
560.552395	2239.597944	2239.597944	2208.044056	2235.957111	2204.403222	2329.405167
560.902499	2228.675444	2228.675444	2292.996833	2251.734056	2376.736000	2369.454333
561.252560	2352.706500	2352.706500	2419.455111	2478.922056	2386.687611	2546.884278
561.602576	2522.369333	2522.369333	2519.942111	2637.662389	2642.516833	2733.537667
561.952550	2694.944833	2694.944833	2834.510111	2812.665111	2846.646222	2992.279556
562.302480	2907.326778	2907.326778	3046.892056	3008.056500	3140.340111	3137.912889
562.652366	3281.604444	3281.604444	3348.353056	3325.294444	3373.838889	3426.024167
563.002209	3400.781056	3400.781056	3507.578833	3468.743278	3609.522167	3711.465500
563.352009	3767.534333	3767.534333	3886.468222	3945.935167	3936.226278	4296.668778
563.701765	4084.286833	4084.286833	4276.037389	4380.407944	4516.332389	4641.334333
564.051477	4527.012167	4527.012167	4819.492444	4824.346889	4968.766611	5177.507722
564.401146	4882.357500	4882.357500	5230.663889	5236.731944	5347.170556	5667.563889
564.750771	5568.533222	5568.533222	5840.382111	5850.091000	5986.015444	6416.847389
565.100353	6206.892667	6206.892667	6401.070444	6651.074333	6748.163222	7174.140722
565.449891	6657.142389	6657.142389	7209.335444	7272.443222	7549.146556	7935.074889
565.799385	7504.971111	7504.971111	8042.600833	8025.610278	8321.731389	8798.680556
566.148836	8429.257333	8429.257333	8982.664000	9230.240667	9293.348444	10165.934833
566.498243	9505.487667	9505.487667	10078.312111	10284.626000	10495.794333	11363.526278
566.847607	10580.261667	10580.261667	11318.137222	11600.908611	11793.872778	12640.973333
567.196927	11587.801611	11587.801611	12533.204667	12836.607444	13278.361889	14032.014389
567.546203	12964.036611	12964.036611	13894.876333	14170.366056	14887.610222	15688.593556
567.895435	14578.139389	14578.139389	15407.035778	15739.565222	16434.964389	17511.437444
568.244624	15842.722167	15842.722167	17045.410778	17268.715222	18067.271333	19276.028000
568.593768	17765.082167	17765.082167	19053.937167	18932.576056	20024.826056	21314.894667
568.942870	19393.748278	19393.748278	20623.136333	21169.261333	21966.603833	23294.294389
569.291927	21288.437944	21288.437944	22568.797667	22884.336556	23960.809611	25701.127944
569.640940	23044.775944	23044.775944	24309.358722	24922.232333	26524.199000	27912.570111
569.989910	24986.796444	24986.796444	26224.679778	26502.596722	28198.011444	30080.322278
570.338836	26898.719389	26898.719389	28484.909111	28999.480222	30541.979944	32616.041333
570.687718	28996.324833	28996.324833	30305.811222	30415.036222	32315.551222	34418.739278
571.036557	30405.570056	30405.570056	31639.812556	31965.060333	34211.454500	36028.230333
571.385351	31820.883333	31820.883333	32737.159722	33222.604167	35276.034167	37356.163611
571.734101	33011.435833	33011.435833	34049.073333	34688.646389	36930.186111	39131.676667
572.082808	34298.106333	34298.106333	34937.679389	35635.505778	37969.279944	39601.586889
572.431471	35876.771667	35876.771667	36106.144167	36362.216111	39176.580278	40859.858889
572.780089	36345.225556	36345.225556	36246.923056	37075.819444	39537.022778	41404.770278
573.128664	36845.476056	36845.476056	36600.326611	37497.185222	39856.445222	41600.404389
573.477195	36784.310056	36784.310056	36368.041444	36852.272278	39412.991722	40868.111444
573.825682	36626.055167	36626.055167	36401.537111	36601.782944	39374.884333	40547.232667
574.174125	36292.797556	36292.797556	35910.510056	36425.081167	38962.742000	39519.789500
574.522524	35459.046722	35459.046722	35014.865056	35343.753667	37485.777278	38093.796444
574.870879	35368.025889	35368.025889	34471.167278	34733.307278	36764.892278	37283.104222
575.219189	34230.629556	34230.629556	33627.464833	33699.067889	35595.942056	35663.904278
575.567456	32936.677389	32936.677389	32356.571278	32600.507111	33812.904611	34237.668500
575.915679	31670.152833	31670.152833	31141.018389	31088.833111	32461.427278	32496.622000
576.263858	30101.681833	30101.681833	29539.779889	29613.810167	30570.135722	30505.814333
576.611992	28445.588111	28445.588111	28160.389500	28138.544500	28643.406722	28559.667556
576.960083	27245.812167	27245.812167	26356.235222	26226.378833	27120.810222	26956.972722
577.308129	25103.788556	25103.788556	24704.510500	24738.491611	25487.289667	25126.847167
577.656131	23471.724333	23471.724333	23171.962389	22919.531278	23531.191278	23265.410444
578.004089	21536.014611	21536.014611	21658.589333	21396.449333	21930.438222	21705.920167
578.352003	20021.913389	20021.913389	19669.966167	19597.149500	19935.747000	19987.932278
578.699873	18304.410944	18304.410944	18197.613167	18099.310667	18376.014000	18275.284278
579.047698	16536.907722	16536.907722	16762.639389	16830.601611	16950.749111	16715.308556
579.395479	15046.593278	15046.593278	15266.256889	15252.907167	15325.723833	15329.364667
579.743217	13858.225278	13858.225278	13944.391667	13955.314167	14085.170556	14076.675278
580.090909	12628.109056	12628.109056	12833.209333	12933.939056	12876.899333	12902.385167
580.438558	11636.346056	11636.346056	11772.270500	11653.336611	11630.278000	11943.389667
580.786162	10588.756944	10588.756944	10882.450833	10968.617222	11005.025556	10956.481111
581.133722	9854.036778	9854.036778	10059.137056	9974.184278	10117.390389	10218.120111
581.481238	9089.219056	9089.219056	9265.192667	9387.767389	9263.979056	9540.682389
581.828709	8504.015778	8504.015778	8672.707722	8781.932722	8815.913833	8832.904389
582.176136	7983.133889	7983.133889	8240.419444	8030.464722	8115.417500	8449.160556
582.523519	7596.477389	7596.477389	7774.878222	7753.033222	7839.199611	7904.734611
582.870857	7159.334667	7159.334667	7303.754389	7370.503000	7425.115500	7482.155222
583.218151	6713.453944	6713.453944	6782.629778	7044.769778	7018.070333	6920.981444
583.565400	6367.817500	6367.817500	6515.878056	6500.101111	6619.035000	6739.182500
583.912605	6111.017389	6111.017389	6334.321833	6148.639333	6433.837944	6453.255722
584.259766	5915.626000	5915.626000	6000.578778	5863.440722	6169.270722	6251.796278
584.606882	5704.700389	5704.700389	5864.897056	5857.615389	5897.664556	5969.267611
584.953954	5423.628056	5423.628056	5634.796389	5500.085556	5631.155556	5822.906111
585.300981	5236.246500	5236.246500	5202.265389	5341.830667	5460.764556	5470.473444
585.647964	5103.962889	5103.962889	5265.373167	5208.333444	5375.811778	5453.482889
585.994902	4847.162778	4847.162778	5035.272500	4981.873611	5172.410556	5269.499444
586.341796	4626.285556	4626.285556	4776.773333	4894.493611	4936.970000	5026.777222
586.688646	4648.130556	4648.130556	4679.684444	4775.559722	4894.493611	5024.350000
587.035450	4528.225778	4528.225778	4587.692722	4648.373278	4794.006611	4783.084111
587.382210	4366.572778	4366.572778	4356.863889	4497.642778	4376.281667	4648.130556
587.728926	4265.843056	4265.843056	4395.699444	4434.535000	4474.584167	4480.652222
588.075597	4176.278556	4176.278556	4238.172722	4307.348556	4280.649111	4361.961056
588.422223	4042.053167	4042.053167	4123.365111	4102.733722	4190.113722	4236.230944
588.768805	4040.354111	4040.354111	4063.412722	4099.821056	4150.792722	4207.832444
589.115342	3866.079556	3866.079556	3969.236500	3947.391500	4054.189278	4094.238444
589.461835	3761.709000	3761.709000	3818.748722	3952.245944	3960.741222	3999.576778
589.808282	3884.041000	3884.041000	3802.729056	3791.806556	3911.954056	3977.489056
590.154685	3752.485556	3752.485556	3753.699167	3707.581944	3784.039444	3882.341944
590.501044	3509.763333	3509.763333	3578.939167	3694.232222	3600.784167	3722.145278
590.847357	3467.529667	3467.529667	3568.259389	3631.367167	3547.628000	3621.658278
591.193626	3503.938000	3503.938000	3450.539111	3491.801889	3500.297167	3622.871889
591.539851	3488.161056	3488.161056	3455.393556	3476.024944	3582.822722	3574.327444
591.886030	3310.488389	3310.488389	3333.547000	3371.168944	3391.800333	3514.375056
592.232165	3219.224833	3219.224833	3279.905389	3245.924278	3277.478167	3343.013167
592.578255	3224.079278	3224.079278	3193.739000	3153.689833	3313.886500	3369.712611
592.924300	3240.098944	3240.098944	3198.836167	3168.495889	3297.138667	3373.596167
593.270300	3057.329111	3057.329111	3249.079667	3212.671333	3292.769667	3358.304667
593.616255	3052.717389	3052.717389	3107.329889	3126.747667	3159.515167	3243.254333
593.962166	2999.075778	2999.075778	3056.115500	3030.629667	3062.183556	3170.194944
594.308032	2890.336222	2890.336222	2914.608444	2969.220944	2981.357056	3012.910944
594.653852	2908.297667	2908.297667	2968.978222	3000.532111	3001.745722	3068.494333
594.999628	2863.879500	2863.879500	2957.327556	2931.841722	2974.318111	3028.930611
595.345359	2850.772500	2850.772500	2820.432222	2917.521111	2919.948333	3041.309444
595.691045	2787.179278	2787.179278	2851.500667	2878.200111	2937.667056	3033.542333
596.036686	2730.139556	2730.139556	2703.440111	2796.888167	2783.538444	2806.597056
596.382283	2706.838222	2706.838222	2825.772111	2677.711556	2780.868500	2932.569889
596.727834	2627.225333	2627.225333	2731.595889	2683.051444	2742.518389	2838.393667
597.073340	2608.778444	2608.778444	2687.663167	2738.634833	2811.451500	2767.761500
597.418801	2517.757611	2517.757611	2671.886222	2647.614000	2653.682056	2734.994000
597.764217	2556.350444	2556.350444	2597.613222	2620.671833	2672.857111	2731.110444
598.109589	2569.942889	2569.942889	2546.884278	2500.767056	2562.661222	2586.933444
598.454915	2450.523556	2450.523556	2528.194667	2508.776889	2533.049111	2550.039667
598.800196	2443.970056	2443.970056	2435.474778	2373.580611	2499.796167	2556.835889
599.145432	2370.425222	2370.425222	2427.464944	2417.756056	2450.523556	2604.652167
599.490623	2232.559000	2232.559000	2338.143167	2319.939000	2425.523167	2472.854000
599.835768	2362.900833	2362.900833	2354.405556	2381.105000	2384.745833	2452.708056
600.180869	2269.938222	2269.938222	2269.938222	2340.327667	2273.579056	2289.356000
600.525925	2302.705722	2302.705722	2203.189611	2328.191556	2352.463778	2353.677389
600.870935	2176.490167	2176.490167	2307.560167	2273.579056	2266.297389	2297.851278
601.215900	2222.607389	2222.607389	2143.722667	2215.325722	2201.976000	2186.199056
601.560820	2188.869000	2188.869000	2167.024000	2232.559000	2239.840667	2259.258444
601.905695	2081.100333	2081.100333	2155.130611	2187.898111	2264.355611	2269.210056
602.250525	2116.537778	2116.537778	2139.596389	2106.828889	2173.577500	2196.636111
602.595309	2030.128667	2030.128667	2044.692000	2076.245889	2106.586167	2141.780889
602.940048	2026.002389	2026.002389	2076.974056	2106.100722	2100.032667	2063.624333
603.284742	2036.439444	2036.439444	2032.798611	2087.411111	2083.770278	2081.343056
603.629390	1979.642444	1979.642444	1954.156611	1985.710500	1969.933556	2036.682167
603.973994	1910.952056	1910.952056	2011.681778	1978.914278	1953.428444	2042.022056
604.318552	1827.698333	1827.698333	1938.136944	1927.214444	1970.904444	1969.690833
604.663064	1882.553556	1882.553556	1861.922167	1927.457167	1889.835222	1909.253000
605.007532	1867.262056	1867.262056	1799.299833	1927.942611	1896.388722	1972.846222
605.351954	1870.417444	1870.417444	1921.389111	1968.719944	1990.564944	1954.156611
605.696330	1808.037833	1808.037833	1929.398944	1895.417833	1884.495333	1940.321444
606.040661	1793.717222	1793.717222	1737.891111	1760.949722	1719.686944	1824.057500
606.384947	1691.045722	1691.045722	1649.782944	1777.212111	1728.667667	1788.134611
606.729188	1688.861222	1688.861222	1681.579556	1799.299833	1747.114556	1832.067333
607.073383	1789.348222	1789.348222	1728.667667	1734.735722	1833.038222	1816.047667
607.417532	1719.686944	1719.686944	1648.083889	1603.180278	1657.792778	1734.250278
607.761636	1588.616944	1588.616944	1582.548889	1661.433611	1593.471389	1706.337222
608.105695	1626.724333	1626.724333	1587.888778	1700.754611	1654.637389	1768.716833
608.449708	1618.714500	1618.714500	1633.277833	1708.521722	1708.521722	1725.512278
608.793676	1530.363611	1530.363611	1582.548889	1587.403333	1571.626389	1680.851389
609.137598	1548.567778	1548.567778	1576.480833	1620.170833	1583.762500	1577.694444
609.481474	1527.693667	1527.693667	1539.829778	1623.568944	1510.703111	1600.510333
609.825305	1571.140944	1571.140944	1527.450944	1578.422611	1528.664556	1618.471778
610.169091	1533.033556	1533.033556	1588.859667	1596.141333	1565.801056	1610.704667
610.512831	1525.751889	1525.751889	1550.024111	1473.566611	1462.644111	1535.460778
610.856525	1500.266056	1500.266056	1545.169667	1531.819944	1637.404111	1526.965500
611.200174	1447.352611	1447.352611	1505.605944	1447.352611	1505.605944	1556.577611
611.543777	1500.023333	1500.023333	1484.246389	1555.849444	1450.265278	1495.168889
611.887334	1432.061111	1432.061111	1436.915556	1478.178333	1498.809722	1428.420278
612.230846	1355.118167	1355.118167	1375.749556	1409.730667	1418.225944	1449.779833
612.574312	1381.332167	1381.332167	1388.613833	1384.973000	1386.186611	1415.313278
612.917733	1384.487556	1384.487556	1413.614222	1447.595333	1475.508389	1442.740889
613.261107	1287.155944	1287.155944	1375.749556	1368.467889	1372.108722	1353.904556
613.604436	1319.680722	1319.680722	1331.816833	1269.922667	1363.370722	1356.089056
613.947720	1303.175611	1303.175611	1282.544222	1281.330611	1340.797556	1385.701167
614.290957	1338.370333	1338.370333	1335.943111	1369.924222	1366.283389	1379.633111
614.634149	1249.534000	1249.534000	1302.932889	1323.564278	1332.059556	1305.360111
614.977295	1237.640611	1237.640611	1191.523389	1294.680333	1237.640611	1326.234222
615.320395	1299.534778	1299.534778	1305.602833	1272.835333	1284.971444	1361.428944
615.663450	1180.843611	1180.843611	1230.601667	1235.456111	1237.883333	1296.136667
616.006458	1268.709056	1268.709056	1246.864056	1296.622111	1318.467111	1376.720444
616.349421	1258.029278	1258.029278	1225.261778	1209.484833	1296.864833	1329.632333
616.692338	1226.232667	1226.232667	1242.009611	1239.582389	1284.486000	1244.436833
617.035209	1086.181944	1086.181944	1165.066667	1184.484444	1268.223611	1219.679167
617.378034	1208.028500	1208.028500	1158.270444	1200.746833	1215.310167	1273.563500
617.720813	1157.785000	1157.785000	1117.735833	1171.134722	1109.240556	1200.261389
618.063546	1213.853833	1213.853833	1195.649667	1189.581611	1256.330222	1245.407722
618.406234	1131.085556	1131.085556	1189.338889	1157.785000	1125.017500	1214.824722
618.748875	1109.483278	1109.483278	1167.736611	1158.027722	1159.241333	1178.659111
619.091471	1122.104833	1122.104833	1100.259833	1116.036778	1142.736222	1075.987611
619.434020	1062.880611	1062.880611	1061.667000	1130.842833	1096.861722	1088.366444
619.776524	1006.326333	1006.326333	937.150500	1025.744111	1070.647722	1034.239389
620.118982	1002.928222	1002.928222	1008.996278	1051.472667	1125.502944	1095.162667
620.461393	1105.114278	1105.114278	1062.637889	1006.811778	1071.133167	1117.250389
620.803759	1008.753556	1008.753556	1058.511611	1039.093833	1045.161889	1026.957722
621.146078	1005.112722	1005.112722	1007.539944	969.918000	1083.997444	1039.093833
621.488351	980.840500	980.840500	990.549389	1002.685500	1000.258278	1009.967167
621.830579	1011.908944	1011.908944	983.995889	975.500611	1031.326722	977.927833
622.172760	1006.811778	1006.811778	993.462056	1050.501778	1082.055667	984.966778
622.514895	971.859778	971.859778	975.500611	986.423111	1022.831444	957.296444
622.856984	940.305889	940.305889	964.578111	926.956167	929.383389	942.733111
623.199027	919.917222	919.917222	921.130833	1013.365278	946.616667	907.781111
623.541024	872.343667	872.343667	916.033667	890.547833	880.838944	911.179222
623.882974	918.703611	918.703611	950.257500	945.403056	963.607222	1025.501389
624.224878	958.510056	958.510056	924.528944	934.237833	920.888111	899.043111
624.566737	905.596611	905.596611	889.819667	846.129667	881.324389	893.460500
624.908549	808.265000	808.265000	890.790556	856.809444	875.013611	918.703611
625.250314	875.013611	875.013611	864.091111	854.382222	865.304722	870.159167
625.592034	766.031333	766.031333	798.798833	791.517167	838.848000	843.702444
625.933707	818.702056	818.702056	815.061222	793.216222	847.828722	834.479000
626.275334	828.168222	828.168222	775.982944	876.712667	860.935722	792.973500
626.616914	777.196556	777.196556	748.069889	765.060444	739.574611	818.459333
626.958449	852.197722	852.197722	861.906611	937.150500	849.770500	815.789389
627.299937	840.789778	840.789778	852.925889	804.381444	792.245333	835.935333
627.641378	810.449500	810.449500	753.409778	747.341722	770.400333	815.303944
627.982774	702.438111	702.438111	713.360611	683.020333	703.651722	784.963667
628.324123	776.468389	776.468389	749.768944	765.545889	844.430611	810.449500
628.665425	677.437722	677.437722	683.505778	747.827167	683.505778	761.176889
629.006681	634.961333	634.961333	728.409389	664.088000	710.205222	648.311056
629.347891	682.534889	682.534889	766.274056	680.107667	745.642667	729.865722
629.689055	717.001444	717.001444	729.137556	670.884222	725.496722	720.642278
630.030171	700.253611	700.253611	691.758333	656.563611	663.845278	680.835833
630.371242	667.728833	667.728833	728.409389	707.778000	721.127722	717.486889
630.712266	755.351556	755.351556	657.049056	670.398778	670.398778	706.807111
631.053243	681.564000	681.564000	690.059278	628.165111	641.514833	618.456222
631.394174	701.224500	701.224500	670.884222	634.475889	657.534500	692.729222
631.735059	664.088000	664.088000	694.428278	587.630500	622.825222	706.564389
632.075897	633.019556	633.019556	609.960944	679.136778	625.737889	667.000667
632.416688	583.989667	583.989667	628.893278	571.853556	607.048278	620.398000
632.757433	574.523500	574.523500	620.640722	625.495167	625.495167	623.067944
633.098131	535.687944	535.687944	578.164333	604.863778	589.086833	592.727667
633.438783	582.533333	582.533333	638.359444	606.805556	640.786667	644.427500
633.779388	540.056944	540.056944	626.223333	580.106111	591.028611	608.019167
634.119946	581.805167	581.805167	556.319333	544.183222	522.338222	618.213500
634.460458	566.028222	566.028222	607.291000	624.281556	620.640722	598.795722
634.800923	524.280000	524.280000	524.280000	547.338611	516.998333	593.455833
635.141342	525.008167	525.008167	556.562056	560.202889	535.930667	511.658444
635.481713	553.163944	553.163944	577.436167	570.154500	534.959778	541.027833
635.822038	511.415722	511.415722	540.542389	601.222944	550.251278	563.601000
636.162317	566.513667	566.513667	568.940889	527.678111	525.250889	575.008944
636.502548	487.143500	487.143500	473.793778	508.988500	433.744611	539.328778
636.842733	562.387389	562.387389	572.096278	587.873222	570.882667	633.990444
637.182871	520.153722	520.153722	582.047889	544.425944	508.017611	571.125389
637.522963	521.367333	521.367333	484.959000	511.658444	529.862611	563.843722
637.863007	453.647833	453.647833	454.861444	451.220611	446.366167	534.959778
638.203005	491.755222	491.755222	450.492444	434.715500	469.910222	452.919667
638.542956	475.007389	475.007389	438.599056	455.589611	411.899611	411.899611
638.882860	474.279222	474.279222	452.434222	482.774500	499.765056	520.396444
639.222717	475.492833	475.492833	443.938944	394.180889	466.997556	457.288667
639.562528	499.036889	499.036889	458.987722	558.503833	468.696611	506.318556
639.902291	451.706056	451.706056	511.173000	439.569944	463.842167	480.832722
640.242008	393.452722	393.452722	460.201333	433.501889	444.424389	418.938556
640.581677	394.909056	394.909056	386.413778	339.082944	374.277667	394.909056
640.921300	368.209611	368.209611	351.219056	393.695444	387.627389	374.277667
641.260876	439.812667	439.812667	444.667111	454.376000	413.113222	434.958222
641.600405	426.948389	426.948389	447.579778	389.326444	402.676167	454.861444
641.939887	412.142333	412.142333	444.909833	450.977889	400.006222	406.074278
642.279322	327.675000	327.675000	406.559722	373.792222	350.733611	416.268611
642.618710	357.529833	357.529833	333.257611	338.112056	364.811500	401.219833
642.958050	360.685222	360.685222	291.509389	338.840222	353.403556	378.889389
643.297344	417.967667	417.967667	354.859889	375.491278	381.559333	331.801278
643.636591	369.180500	369.180500	369.180500	377.675778	359.471611	432.288278
643.975791	379.374833	379.374833	376.947611	393.938167	396.365389	396.365389
644.314944	372.578611	372.578611	355.588056	388.355556	355.588056	411.414167
644.654049	389.569167	389.569167	390.782778	354.374444	459.958611	366.510556
644.993108	368.695056	368.695056	368.695056	361.413389	348.063667	349.277278
645.332119	373.306778	373.306778	367.238722	356.316222	395.151778	397.579000
645.671083	305.587278	305.587278	360.199778	337.141167	385.685611	454.861444
646.010000	357.529833	357.529833	342.966500	372.093167	341.752889	418.210389
646.348870	325.005056	325.005056	379.617556	337.141167	367.481444	346.850056
646.687693	423.064833	423.064833	419.424000	429.132889	396.365389	401.219833
647.026468	266.266278	266.266278	251.702944	336.655722	334.228500	296.606556
647.365197	326.704111	326.704111	344.908278	276.946056	283.014111	307.286333
647.703878	365.296944	365.296944	303.402778	316.752500	288.839444	425.977500
648.042511	403.647056	403.647056	345.393722	301.703722	395.151778	363.597889
648.381098	318.937000	318.937000	395.394500	361.413389	354.131722	378.403944
648.719637	350.248167	350.248167	311.412611	351.461778	351.461778	392.724556
649.058129	302.917333	302.917333	258.013722	273.790667	268.936222	294.422056
649.396574	257.771000	257.771000	252.916556	288.111278	343.937389	261.411833
649.734971	313.354389	313.354389	429.861056	313.354389	312.140778	354.617167
650.073321	264.567222	264.567222	276.703333	276.703333	282.771389	266.994444
650.411624	261.169111	261.169111	310.927167	245.392167	279.373278	300.004667
650.749879	213.838278	213.838278	280.586889	264.809944	247.819389	318.208833
651.088087	268.693500	268.693500	286.897667	251.702944	289.324889	263.839056
651.426248	289.810333	289.810333	247.333944	301.946444	289.810333	270.392556
651.764361	220.149056	220.149056	191.022389	200.731278	277.188778	267.479889
652.102427	278.645111	278.645111	258.013722	278.645111	370.879556	310.199000
652.440445	236.411444	236.411444	289.810333	270.392556	257.042833	213.352833
652.778416	332.044000	332.044000	306.558167	302.917333	349.034556	305.344556
653.116339	264.567222	264.567222	231.799722	266.994444	233.013333	225.731667
653.454215	279.373278	279.373278	267.237167	266.023556	245.392167	284.227722
653.792043	247.091222	247.091222	211.896500	244.664000	211.896500	261.654556
654.129824	245.149444	245.149444	251.217500	246.363056	186.896111	286.412222
654.467557	227.673444	227.673444	242.236778	239.809556	282.285944	283.499556
654.805243	239.809556	239.809556	266.509000	273.790667	248.304833	217.964556
655.142881	297.334722	297.334722	291.266667	314.325278	293.693889	354.374444
655.480472	242.479500	242.479500	299.519222	259.470056	232.770611	257.042833
655.818015	200.003111	200.003111	261.897278	221.848111	247.333944	233.984222
656.155510	244.906722	244.906722	258.256444	276.460611	267.965333	294.664778
656.492958	197.575889	197.575889	208.498389	232.770611	184.226167	198.789500
656.830358	218.450000	218.450000	197.818611	226.945278	240.295000	180.828056
657.167711	249.033000	249.033000	215.051889	185.925222	215.051889	238.110500
657.505015	268.693500	268.693500	285.684056	260.198222	255.343778	226.217111
657.842273	171.847333	171.847333	248.304833	173.060944	203.401222	220.391778
658.179482	272.819778	272.819778	301.946444	242.479500	232.770611	311.655333
658.516644	192.236000	192.236000	153.400444	218.935444	234.712389	191.022389
658.853758	259.712778	259.712778	219.663611	175.973611	242.722222	250.003889
659.190824	216.022778	216.022778	224.518056	149.274167	205.100278	202.673056
659.527842	169.662833	169.662833	210.925611	203.643944	176.944500	140.536167
659.864813	222.819000	222.819000	276.217889	222.819000	241.023167	224.032611
660.201736	264.324500	264.324500	267.965333	226.702556	248.547556	184.226167
660.538611	213.352833	213.352833	248.547556	248.547556	271.606167	284.955889
660.875438	218.692722	218.692722	172.575500	215.051889	210.197444	181.070778
661.212218	190.051500	190.051500	213.110111	208.255667	179.129000	166.992889
661.548950	254.615611	254.615611	202.430333	193.935056	144.177000	216.993667
661.885633	222.819000	222.819000	264.081778	202.187611	236.168722	241.023167
662.222269	167.478333	167.478333	189.323333	213.595556	253.644722	236.654167
662.558857	234.226944	234.226944	264.567222	166.264722	197.818611	212.381944
662.895397	373.549500	373.549500	338.354778	423.307556	390.540056	373.549500
663.231889	215.780056	215.780056	221.848111	204.857556	227.916167	174.517278
663.568334	121.361111	121.361111	148.060556	118.933889	148.060556	158.983056
663.904730	221.848111	221.848111	210.925611	214.566444	238.838667	216.993667
664.241078	224.760778	224.760778	188.352444	176.216333	170.148278	232.042444
664.577378	126.943722	126.943722	222.819000	181.556222	213.110111	171.847333
664.913631	185.197056	185.197056	192.478722	180.342611	183.983444	162.138444
665.249835	185.439778	185.439778	181.798944	187.867000	184.226167	152.672278
665.585991	150.487778	150.487778	182.041667	172.332778	218.450000	263.353611
665.922099	155.584944	155.584944	219.906333	205.343000	218.692722	151.944111
666.258159	223.547167	223.547167	96.118000	168.934667	189.566056	158.012167
666.594171	140.778889	140.778889	212.381944	191.750556	173.546389	200.245833
666.930135	127.429167	127.429167	148.060556	186.896111	112.865833	141.992500
667.266051	212.381944	212.381944	217.236389	173.546389	209.954722	194.177778
667.601919	173.546389	173.546389	189.323333	184.468889	188.109722	186.896111
667.937738	194.177778	194.177778	214.809167	201.459444	171.119167	131.070000
668.273510	205.828444	205.828444	213.110111	162.138444	221.605389	193.692333
668.609233	420.394889	420.394889	437.385444	370.636833	403.404333	430.103778
668.944908	245.877611	245.877611	233.741500	236.168722	177.915389	190.051500
669.280535	141.992500	141.992500	149.274167	131.070000	131.070000	93.448056
669.616114	167.721056	167.721056	159.225778	151.944111	138.594389	179.857167
669.951644	184.954333	184.954333	163.109333	188.595167	214.081000	188.595167
670.287126	188.352444	188.352444	138.594389	124.031056	191.993278	142.235222
670.622560	183.740722	183.740722	163.109333	155.827667	241.994056	249.275722
670.957946	147.332389	147.332389	182.527111	147.332389	204.372111	165.536556
671.293283	155.342222	155.342222	146.846944	160.196667	155.342222	134.710833
671.628572	191.993278	191.993278	173.789111	178.643556	170.148278	210.197444
671.963813	138.837111	138.837111	137.623500	147.332389	131.555444	113.351278
672.299006	192.478722	192.478722	186.410667	230.100667	181.556222	216.750944
672.634150	123.788333	123.788333	115.293056	177.187222	225.731667	157.769444
672.969245	108.496833	108.496833	83.011000	135.196278	188.595167	136.409889
673.304293	54.612500	54.612500	135.924444	154.128611	129.856389	165.051111
673.639291	90.535389	90.535389	128.157333	113.594000	156.070389	100.244278
673.974242	130.341833	130.341833	177.672667	166.750167	147.332389	165.536556
674.309144	92.719889	92.719889	55.097944	160.682111	81.797389	97.574333
674.643998	158.740333	158.740333	117.477556	208.498389	161.167556	196.362278
674.978803	159.711222	159.711222	154.856778	159.711222	143.934278	202.187611
675.313560	144.177000	144.177000	181.798944	158.740333	127.186444	158.740333
675.648268	153.643167	153.643167	153.643167	157.284000	107.525944	128.157333
675.982928	100.001556	100.001556	102.428778	84.224611	118.205722	135.196278
676.317539	162.138444	162.138444	134.225389	188.837889	103.885111	156.070389
676.652101	115.778500	115.778500	114.564889	114.564889	114.564889	135.196278
676.986615	67.962222	67.962222	100.729722	83.739167	74.030278	103.156944
677.321081	94.176222	94.176222	72.331222	128.157333	94.176222	61.408722
677.655498	121.361111	121.361111	121.361111	129.856389	82.525556	109.225000
677.989866	85.438222	85.438222	155.827667	130.341833	137.623500	79.370167
678.324186	167.963778	167.963778	120.632944	136.409889	183.740722	141.264333
678.658457	164.080222	164.080222	128.885500	162.866611	119.176611	132.526333
678.992680	182.769833	182.769833	109.953167	122.089278	133.011778	122.089278
679.326854	134.953556	134.953556	139.808000	86.409111	80.341056	82.768278
679.660979	175.002722	175.002722	128.885500	162.866611	68.204944	117.963000
679.995055	98.059778	98.059778	96.846167	110.195889	118.691167	115.050333
680.329083	157.041278	157.041278	132.769056	167.963778	154.614056	181.313500
680.663062	211.653778	211.653778	216.508222	214.081000	206.799333	255.343778
680.996993	143.448833	143.448833	117.963000	103.399667	108.254111	136.167167
681.330874	121.118389	121.118389	108.982278	115.050333	157.526722	117.477556
681.664707	71.360333	71.360333	70.146722	71.360333	112.623111	43.447278
681.998491	109.467722	109.467722	77.913833	131.312722	94.904389	57.282444
682.332227	39.078278	39.078278	79.127444	60.923278	35.437444	58.496056
682.665913	100.972444	100.972444	94.904389	109.467722	133.739944	132.526333
682.999551	39.806444	39.806444	83.496444	98.059778	117.477556	66.505889
683.333140	88.108167	88.108167	102.671500	57.767889	128.157333	44.418167
683.666680	108.254111	108.254111	108.254111	88.836333	124.031056	73.059389
684.000171	46.359944	46.359944	52.428000	68.204944	79.127444	52.428000
684.333613	106.797778	106.797778	150.487778	143.206111	92.234444	167.478333
684.667006	145.390611	145.390611	113.836722	151.458667	118.691167	115.050333
685.000351	87.865444	87.865444	97.574333	108.496833	70.874889	53.884333
685.333646	100.729722	100.729722	37.621944	106.797778	115.293056	71.603056
685.666893	109.225000	109.225000	104.370556	100.729722	40.049167	105.584167
686.000091	124.516500	124.516500	17.718722	103.885111	106.312333	145.147889
686.333239	107.768667	107.768667	67.719500	116.263944	147.817833	105.341444
686.666339	105.098722	105.098722	126.943722	92.962611	65.049556	89.321778
686.999390	37.136500	37.136500	86.894556	83.253722	92.962611	71.117611
687.332391	20.145944	20.145944	68.690389	-4.126278	77.185667	100.244278
687.665344	91.749000	91.749000	141.507056	131.798167	105.098722	129.370944
687.998247	36.408333	36.408333	60.680556	53.398889	19.417778	52.185278
688.331102	112.380389	112.380389	95.389833	89.321778	103.885111	48.059000
688.663907	86.651833	86.651833	49.029889	70.874889	62.379611	-16.505111
688.996664	74.758444	74.758444	61.408722	56.554278	75.972056	84.467333
689.329371	88.836333	88.836333	93.690778	104.613278	121.603833	109.467722
689.662029	137.866222	137.866222	94.176222	197.333167	134.225389	176.701778
689.994638	159.468500	159.468500	153.400444	157.041278	116.992111	140.050722
690.327198	28.883944	28.883944	32.524778	68.933111	32.524778	95.632556
690.659708	117.477556	117.477556	58.010611	110.195889	99.273389	112.623111
690.992170	61.408722	61.408722	50.486222	89.321778	41.990944	71.117611
691.324582	175.245444	175.245444	130.341833	110.924056	125.487389	158.254889
691.656945	47.573556	47.573556	43.932722	51.214389	68.204944	43.932722
691.989259	89.564500	89.564500	73.787556	76.214778	106.555056	72.573944
692.321524	15.534222	15.534222	83.496444	95.632556	83.496444	50.728944
692.653739	74.758444	74.758444	21.359556	39.563722	89.321778	44.418167
692.985905	93.690778	93.690778	73.059389	59.709667	40.291889	70.632167
693.318022	67.962222	67.962222	105.584167	76.457500	128.642778	114.079444
693.650089	39.078278	39.078278	92.477167	76.700222	71.845778	60.923278
693.982107	31.311167	31.311167	62.865056	67.719500	43.447278	42.233667
694.314076	117.720278	117.720278	49.758056	92.234444	55.826111	42.476389
694.645996	164.565667	164.565667	82.040111	39.563722	68.690389	96.603444
694.977866	82.040111	82.040111	71.117611	123.302889	134.225389	179.129000
695.309686	59.466944	59.466944	52.185278	106.797778	50.971667	99.516111
695.641458	110.681333	110.681333	85.195500	46.359944	100.972444	117.963000
695.973180	143.691556	143.691556	104.856000	103.642389	102.428778	87.865444
696.304852	96.846167	96.846167	87.137278	100.487000	70.146722	88.350889
696.636475	104.856000	104.856000	76.942944	113.351278	126.701000	75.729333
696.968049	74.273000	74.273000	69.418556	150.730500	51.214389	96.118000
697.299573	91.749000	91.749000	37.136500	55.340667	91.749000	80.826500
697.631047	123.302889	123.302889	60.195111	62.622333	102.671500	119.662056
697.962472	50.243500	50.243500	61.166000	75.729333	-8.009833	86.651833
698.293848	50.728944	50.728944	30.097556	93.205333	-0.242722	58.010611
698.625174	34.466556	34.466556	72.088500	22.330444	63.593222	66.020444
698.956451	118.691167	118.691167	26.456722	20.388667	24.029500	11.893389
699.287678	71.117611	71.117611	60.195111	37.136500	38.350111	100.244278
699.618855	58.981500	58.981500	38.350111	57.767889	88.108167	60.195111
699.949983	50.486222	50.486222	73.544833	78.399278	51.699833	46.845389
700.281061	113.108556	113.108556	151.944111	59.709667	87.622722	88.836333
700.612089	55.826111	55.826111	36.408333	15.776944	31.553889	37.621944
700.943068	21.602278	21.602278	9.466167	45.874500	33.738389	33.738389
701.273998	30.340278	30.340278	23.058611	15.776944	3.640833	23.058611
701.604877	33.495667	33.495667	50.486222	-51.457111	17.718722	22.573167
701.935707	41.505500	41.505500	96.118000	51.214389	107.040500	105.826889
702.266487	117.234833	117.234833	125.730111	102.671500	91.749000	96.603444
702.597218	101.943333	101.943333	173.546389	123.788333	141.992500	109.225000
702.927899	81.554667	81.554667	127.671889	132.526333	43.932722	126.458278
703.258530	49.758056	49.758056	86.166389	75.243889	110.438611	98.302500
703.589111	54.369778	54.369778	56.797000	123.545611	98.059778	67.719500
703.919642	76.700222	76.700222	29.369389	43.932722	54.855222	62.136889
704.250124	35.437444	35.437444	68.204944	2.669944	31.796611	42.719111
704.580556	43.447278	43.447278	66.505889	24.029500	119.904778	87.137278
704.910938	40.534611	40.534611	-12.864278	24.757667	8.980722	33.252944
705.241270	49.758056	49.758056	61.894167	74.030278	52.185278	50.971667
705.571553	134.468111	134.468111	111.409500	89.564500	118.691167	144.177000
705.901785	10.922500	10.922500	14.563333	58.253333	-4.854444	-36.408333
706.231968	50.971667	50.971667	63.107778	40.049167	21.845000	47.330833
706.562101	-7.281667	-7.281667	-26.699444	-33.981111	12.136111	14.563333
706.892184	71.603056	71.603056	9.708889	75.243889	43.690000	95.875278
707.222216	84.467333	84.467333	61.408722	100.244278	44.418167	48.059000
707.552199	120.390222	120.390222	79.127444	103.399667	168.934667	107.040500
707.882132	68.933111	68.933111	28.883944	76.214778	132.040889	39.806444
708.212016	15.776944	15.776944	103.156944	55.826111	118.933889	43.690000
708.541849	10.437056	10.437056	65.049556	58.981500	39.563722	26.214000
708.871632	74.758444	74.758444	85.680944	38.350111	111.166778	82.040111
709.201365	53.156167	53.156167	62.865056	47.088111	58.010611	83.496444
709.531048	-24.757667	-24.757667	34.709278	41.990944	48.059000	56.554278
709.860681	86.409111	86.409111	29.369389	54.855222	58.496056	24.514944
710.190264	31.068444	31.068444	74.758444	78.399278	50.486222	67.476778
710.519796	114.322167	114.322167	104.613278	122.817444	145.876056	88.836333
710.849279	52.185278	52.185278	55.826111	71.603056	63.107778	60.680556
711.178712	78.399278	78.399278	73.544833	40.777333	54.127056	84.467333
711.508094	24.514944	24.514944	17.233278	54.855222	14.806056	11.165222
711.837427	63.107778	63.107778	25.485833	50.971667	1.213611	-1.213611
712.166709	159.468500	159.468500	116.992111	125.487389	70.874889	91.506278
712.495941	40.291889	40.291889	73.059389	16.019667	54.855222	39.078278
712.825123	35.194722	35.194722	33.981111	32.767500	55.826111	19.417778
713.154255	94.904389	94.904389	73.059389	126.458278	86.409111	128.885500
713.483336	67.476778	67.476778	8.009833	73.544833	117.234833	58.981500
713.812367	-13.107000	-13.107000	8.738000	82.768278	45.146333	-26.456722
714.141348	91.506278	91.506278	53.884333	96.360722	106.069611	136.409889
714.470279	30.583000	30.583000	98.545222	83.981889	104.613278	134.953556
714.799159	32.767500	32.767500	72.816667	29.126667	63.107778	40.049167
715.127990	-28.883944	-28.883944	59.709667	19.660500	48.787167	18.446889
715.456769	60.195111	60.195111	63.835944	60.195111	45.631778	72.331222
715.785499	139.565278	139.565278	77.671111	76.457500	95.875278	84.952778
716.114178	49.272611	49.272611	-8.980722	51.699833	28.641222	43.204556
716.442807	81.554667	81.554667	42.719111	50.000778	64.564111	8.738000
716.771385	84.224611	84.224611	123.060167	129.128222	123.060167	25.971278
717.099914	59.709667	59.709667	-24.029500	-22.815889	3.883556	-10.679778
717.428391	30.583000	30.583000	91.263556	82.768278	99.758833	2.669944
717.756819	67.719500	67.719500	48.301722	61.651444	101.700611	59.224222
718.085195	41.020056	41.020056	54.369778	33.738389	43.447278	47.088111
718.413522	41.262778	41.262778	71.603056	44.903611	66.748611	122.574722
718.741798	92.477167	92.477167	122.817444	6.310778	36.651056	33.010222
719.070023	79.127444	79.127444	48.787167	77.913833	65.777722	64.564111
719.398198	140.536167	140.536167	129.613667	123.545611	130.827278	77.428389
719.726323	28.398500	28.398500	106.069611	91.506278	47.816278	90.292667
720.054397	88.350889	88.350889	113.836722	81.069222	28.883944	98.059778
720.382420	51.942556	51.942556	87.137278	129.613667	51.942556	101.700611
720.710393	104.127833	104.127833	125.972833	116.263944	75.001167	125.972833
721.038316	0.242722	0.242722	56.068833	-5.825333	63.350500	16.019667
721.366188	-25.000389	-25.000389	-15.291500	25.971278	-8.009833	-0.728167
721.694009	48.787167	48.787167	47.573556	33.010222	17.233278	17.233278
722.021779	57.039722	57.039722	42.476389	-4.854444	21.845000	-12.136111
722.349499	63.107778	63.107778	61.894167	65.535000	78.884722	104.370556
722.677169	-2.184500	-2.184500	65.777722	8.738000	28.155778	51.214389
723.004787	22.815889	22.815889	49.515333	51.942556	7.038944	55.583389
723.332355	72.331222	72.331222	33.495667	55.340667	26.214000	41.990944
723.659873	44.903611	44.903611	-19.417778	77.671111	30.340278	99.516111
723.987339	11.893389	11.893389	58.010611	45.874500	51.942556	78.642000
724.314755	25.243111	25.243111	77.428389	27.670333	9.466167	91.991722
724.642120	58.010611	58.010611	108.982278	61.651444	48.301722	71.360333
724.969435	68.933111	68.933111	67.719500	49.515333	75.001167	89.564500
725.296699	15.534222	15.534222	45.874500	14.320611	39.806444	44.660889
725.623911	84.224611	84.224611	75.729333	127.914611	120.632944	74.515722
725.951074	14.077889	14.077889	56.554278	108.739556	43.204556	14.077889
726.278185	84.710056	84.710056	65.292278	67.719500	55.583389	27.670333
726.605245	99.273389	99.273389	72.573944	118.691167	123.545611	51.942556
726.932255	100.487000	100.487000	37.379222	60.437833	51.942556	28.883944
727.259214	30.340278	30.340278	31.553889	4.854444	46.117222	76.457500
727.586122	81.069222	81.069222	51.942556	28.883944	60.437833	34.952000
727.912979	59.709667	59.709667	51.214389	-3.398111	24.514944	-13.107000
728.239785	90.049944	90.049944	85.195500	139.808000	125.244667	90.049944
728.566540	20.874111	20.874111	-34.952000	40.291889	7.524389	22.087722
728.893245	15.048778	15.048778	-10.437056	28.398500	6.553500	30.825722
729.219898	22.815889	22.815889	33.738389	54.369778	9.466167	82.282833
729.546501	38.592833	38.592833	56.797000	20.388667	17.961444	58.010611
729.873052	55.340667	55.340667	48.059000	46.845389	43.204556	33.495667
730.199552	159.468500	159.468500	124.273778	164.322944	132.769056	120.632944
730.526002	97.088889	97.088889	71.603056	63.107778	63.107778	-4.854444
730.852400	69.904000	69.904000	27.427611	51.699833	37.136500	69.904000
731.178748	87.380000	87.380000	53.398889	116.506667	66.748611	97.088889
731.505044	32.767500	32.767500	-15.776944	13.349722	-9.708889	20.631389
731.831290	-21.845000	-21.845000	26.699444	2.427222	3.640833	88.593611
732.157484	48.787167	48.787167	34.223833	63.350500	54.855222	18.446889
732.483627	-12.378833	-12.378833	-52.428000	54.369778	25.243111	-16.019667
732.809719	-6.553500	-6.553500	10.437056	27.427611	54.127056	20.145944
733.135760	103.885111	103.885111	67.476778	43.204556	82.040111	112.380389
733.461750	52.913444	52.913444	58.981500	32.282056	61.408722	-16.262389
733.787688	68.933111	68.933111	60.437833	93.205333	75.001167	53.156167
734.113576	60.923278	60.923278	39.078278	19.660500	17.233278	66.991333
734.439412	52.913444	52.913444	82.040111	73.544833	83.253722	72.331222
734.765197	83.496444	83.496444	99.273389	38.592833	53.156167	42.233667
735.090931	8.009833	8.009833	84.467333	43.204556	32.282056	78.399278
735.416614	13.592444	13.592444	18.446889	25.728556	18.446889	22.087722
735.742245	49.029889	49.029889	52.670722	49.029889	80.583778	30.825722
736.067825	124.759222	124.759222	110.195889	176.944500	133.254500	147.817833
736.393354	69.418556	69.418556	64.564111	99.758833	58.496056	121.603833
736.718832	83.496444	83.496444	59.224222	85.923667	104.127833	129.613667
737.044258	29.612111	29.612111	-15.291500	16.262389	50.243500	39.321000
737.369633	37.379222	37.379222	37.379222	-16.019667	36.165611	13.107000
737.694957	68.447667	68.447667	-11.650667	30.825722	-33.495667	57.525167
738.020229	16.747833	16.747833	88.350889	2.184500	51.942556	32.524778
738.345450	-0.728167	-0.728167	46.602667	74.515722	49.029889	23.544056
738.670619	-17.476000	-17.476000	-16.262389	31.068444	37.136500	61.408722
738.995738	54.369778	54.369778	11.893389	61.651444	24.029500	33.738389
739.320804	71.360333	71.360333	91.991722	108.982278	76.214778	146.604222
739.645820	19.660500	19.660500	28.155778	-8.252556	-5.825333	-4.611722
739.970784	63.107778	63.107778	87.380000	86.166389	74.030278	1.213611
740.295696	31.068444	31.068444	52.913444	45.631778	35.922889	60.195111
740.620557	23.058611	23.058611	83.739167	80.098333	75.243889	49.758056
740.945366	81.554667	81.554667	80.341056	9.951611	65.777722	28.155778
741.270124	71.845778	71.845778	43.932722	76.700222	-2.184500	29.369389
741.594831	45.631778	45.631778	54.127056	78.399278	97.817056	33.495667
741.919486	-32.524778	-32.524778	-11.893389	7.524389	18.446889	9.951611
742.244089	53.641611	53.641611	43.932722	43.932722	-0.970889	65.777722
742.568641	16.505111	16.505111	37.136500	25.000389	83.253722	3.155389
742.893141	77.671111	77.671111	18.204167	-2.427222	70.389444	37.621944
743.217590	131.555444	131.555444	161.895722	141.264333	125.487389	112.137667
743.541987	104.856000	104.856000	110.924056	81.797389	95.147111	58.738778
743.866332	44.903611	44.903611	50.971667	19.417778	94.661667	20.631389
744.190626	26.214000	26.214000	33.495667	72.331222	61.408722	46.845389
744.514868	71.603056	71.603056	81.311944	57.039722	33.981111	-14.563333
744.839058	70.632167	70.632167	62.136889	18.446889	19.660500	51.214389
745.163197	30.825722	30.825722	23.544056	63.593222	57.525167	39.321000
745.487284	286.654944	286.654944	206.556611	258.741889	326.704111	274.518833
745.811320	40.534611	40.534611	58.738778	102.428778	109.710444	62.379611
746.135303	68.204944	68.204944	79.127444	82.768278	-0.970889	70.632167
746.459235	62.379611	62.379611	25.971278	34.466556	28.398500	50.243500
746.783115	-14.320611	-14.320611	39.078278	25.728556	57.282444	54.855222
747.106944	16.747833	16.747833	36.165611	45.874500	27.670333	53.156167
747.430720	-5.097167	-5.097167	21.602278	10.679778	64.078667	-0.242722
747.754445	20.874111	20.874111	59.709667	12.378833	34.223833	34.223833
748.078118	85.195500	85.195500	92.477167	104.613278	69.418556	116.749389
748.401739	27.913056	27.913056	-8.495278	46.117222	37.621944	32.767500
748.725308	98.545222	98.545222	73.059389	116.749389	45.146333	69.418556
749.048825	-25.971278	-25.971278	-22.330444	-7.767111	14.077889	25.000389
749.372291	49.029889	49.029889	22.330444	29.612111	28.398500	30.825722
749.695705	16.505111	16.505111	61.408722	66.263167	46.845389	9.223444
750.019066	-25.728556	-25.728556	-19.660500	3.398111	-3.883556	56.797000
750.342376	12.621556	12.621556	7.767111	5.339889	13.835167	24.757667
750.665634	42.476389	42.476389	87.380000	84.952778	36.408333	75.243889
750.988840	49.272611	49.272611	69.904000	56.554278	39.563722	51.699833
751.311994	61.894167	61.894167	47.330833	38.835556	52.185278	46.117222
751.635096	21.116833	21.116833	66.020444	59.952389	67.234056	-3.155389
751.958146	-11.165222	-11.165222	30.097556	31.311167	-33.010222	10.679778
752.281143	22.087722	22.087722	-30.097556	-5.825333	0.242722	-17.961444
752.604089	75.243889	75.243889	31.553889	48.544444	54.612500	50.971667
752.926983	8.009833	8.009833	32.282056	-33.252944	15.291500	6.796222
753.249825	52.913444	52.913444	37.136500	18.932333	-42.961833	5.582611
753.572615	103.642389	103.642389	79.370167	55.097944	23.544056	68.447667
753.895352	23.058611	23.058611	59.466944	59.466944	16.990556	30.340278
754.218038	104.856000	104.856000	66.020444	126.701000	51.457111	97.574333
754.540671	54.855222	54.855222	73.059389	7.524389	2.669944	53.641611
754.863252	111.409500	111.409500	32.524778	73.787556	54.369778	68.933111
755.185781	59.952389	59.952389	63.593222	73.302111	50.243500	101.215167
755.508258	118.448444	118.448444	125.730111	74.758444	100.244278	46.845389
755.830683	41.020056	41.020056	61.651444	51.942556	47.088111	38.592833
756.153056	91.991722	91.991722	89.564500	21.602278	90.778111	31.311167
756.475376	17.961444	17.961444	58.010611	22.815889	32.524778	0.970889
756.797644	-41.020056	-41.020056	-16.747833	-3.398111	-58.010611	0.242722
757.119860	68.447667	68.447667	44.175444	74.515722	51.457111	56.311556
757.442023	108.254111	108.254111	134.953556	110.681333	68.204944	113.108556
757.764135	-3.398111	-3.398111	50.000778	54.855222	36.651056	60.923278
758.086194	99.273389	99.273389	94.418944	125.972833	104.127833	108.982278
758.408201	57.767889	57.767889	26.214000	-19.903222	67.476778	21.359556
758.730155	27.427611	27.427611	67.476778	120.875667	33.495667	40.777333
759.052057	90.535389	90.535389	78.399278	117.234833	73.544833	175.488167
759.373907	-8.980722	-8.980722	-1.699056	17.718722	-28.398500	-10.194333
759.695704	49.272611	49.272611	37.136500	9.223444	10.437056	84.467333
760.017449	-32.282056	-32.282056	46.602667	-46.845389	18.689611	2.912667
760.339142	50.971667	50.971667	-2.427222	-32.767500	-8.495278	-8.495278
760.660782	95.875278	95.875278	61.894167	87.380000	72.816667	27.913056
760.982370	70.632167	70.632167	115.535778	144.662444	76.700222	86.409111
761.303905	48.544444	48.544444	59.466944	-2.427222	18.204167	35.194722
761.625388	107.525944	107.525944	16.505111	31.068444	71.117611	45.631778
761.946818	70.389444	70.389444	54.612500	26.699444	48.544444	23.058611
762.268196	57.282444	57.282444	46.359944	23.301333	33.010222	56.068833
762.589521	-38.107389	-38.107389	-42.961833	-5.339889	-10.194333	12.864278
762.910794	83.981889	83.981889	87.622722	71.845778	58.496056	52.428000
763.232015	-43.204556	-43.204556	38.107389	21.116833	46.602667	29.612111
763.553182	-4.126278	-4.126278	-46.602667	-33.252944	-28.398500	48.059000
763.874298	-34.709278	-34.709278	1.699056	29.612111	-43.204556	24.757667
764.195360	2.669944	2.669944	43.932722	23.301333	48.787167	-2.184500
764.516370	40.049167	40.049167	84.952778	37.621944	74.030278	10.922500
764.837328	87.865444	87.865444	56.311556	72.088500	41.748222	93.933500
765.158233	76.214778	76.214778	42.233667	67.719500	64.078667	100.487000
765.479085	10.437056	10.437056	9.223444	22.573167	-2.912667	51.699833
765.799885	27.913056	27.913056	-32.767500	-32.767500	36.408333	69.175833
766.120631	22.330444	22.330444	17.476000	61.166000	17.476000	16.262389
766.441326	60.680556	60.680556	54.612500	14.563333	69.175833	54.612500
766.761967	5.825333	5.825333	-6.310778	95.632556	60.437833	9.466167
767.082556	5.097167	5.097167	60.923278	30.583000	54.855222	60.923278
767.403092	89.564500	89.564500	164.808389	122.332000	140.536167	105.341444
767.723575	102.428778	102.428778	131.555444	27.184889	56.311556	67.234056
768.044006	44.903611	44.903611	47.330833	50.971667	25.485833	71.603056
768.364384	63.350500	63.350500	98.545222	100.972444	71.845778	64.564111
768.684709	97.088889	97.088889	69.175833	97.088889	70.389444	66.748611
769.004981	47.330833	47.330833	8.495278	21.845000	82.525556	37.621944
769.325200	18.932333	18.932333	49.272611	62.622333	9.223444	35.922889
769.645367	58.253333	58.253333	46.117222	14.563333	-16.990556	-6.068056
769.965481	39.563722	39.563722	85.680944	125.730111	84.467333	94.176222
770.285541	29.369389	29.369389	40.291889	98.545222	40.291889	53.641611
770.605549	58.738778	58.738778	73.302111	40.534611	46.602667	28.398500
770.925504	42.719111	42.719111	2.669944	11.165222	12.378833	-0.970889
771.245407	15.534222	15.534222	14.320611	-29.369389	20.388667	21.602278
771.565256	-19.903222	-19.903222	14.077889	57.767889	40.777333	35.922889
771.885052	46.845389	46.845389	56.554278	49.272611	11.650667	67.476778
772.204795	52.428000	52.428000	-5.825333	69.418556	45.146333	22.087722
772.524486	-3.883556	-3.883556	-11.165222	-11.165222	20.388667	88.350889
772.844123	52.670722	52.670722	45.389056	53.884333	45.389056	42.961833
773.163708	66.991333	66.991333	87.622722	115.535778	76.700222	64.564111
773.483239	-32.039333	-32.039333	-12.621556	28.641222	-7.767111	-11.407944
773.802717	158.497611	158.497611	154.856778	146.361500	221.605389	193.692333
774.122142	9.951611	9.951611	7.524389	47.573556	42.719111	70.632167
774.441515	-7.767111	-7.767111	14.077889	6.796222	34.709278	-8.980722
774.760834	29.126667	29.126667	50.971667	9.708889	-14.563333	24.272222
775.080100	66.263167	66.263167	49.272611	56.554278	25.000389	46.845389
775.399313	15.534222	15.534222	59.224222	25.243111	37.379222	93.205333
775.718473	76.700222	76.700222	74.273000	41.505500	46.359944	58.496056
776.037579	-13.835167	-13.835167	29.854833	35.922889	17.718722	-22.330444
776.356633	5.339889	5.339889	22.330444	7.767111	36.893778	-18.932333
776.675633	50.971667	50.971667	18.204167	67.962222	33.981111	25.485833
776.994580	49.272611	49.272611	88.108167	78.399278	48.059000	32.282056
777.313474	76.214778	76.214778	108.982278	110.195889	61.651444	84.710056
777.632315	14.077889	14.077889	25.000389	-7.767111	5.582611	26.214000
777.951103	65.777722	65.777722	41.505500	28.155778	6.310778	56.068833
778.269837	40.049167	40.049167	38.835556	70.389444	-24.272222	59.466944
778.588518	4.126278	4.126278	22.330444	36.893778	33.252944	-3.155389
778.907146	-20.145944	-20.145944	-5.582611	23.544056	5.339889	36.893778
779.225720	13.349722	13.349722	-1.213611	19.417778	41.262778	4.854444
779.544242	30.340278	30.340278	4.854444	24.272222	24.272222	-42.476389
779.862709	20.631389	20.631389	57.039722	65.535000	24.272222	55.826111
780.181124	22.573167	22.573167	43.204556	77.185667	11.650667	14.077889
780.499485	-2.912667	-2.912667	-0.485444	28.641222	-47.816278	-10.194333
780.817793	4.369000	4.369000	34.709278	9.223444	1.941778	5.582611
781.136047	46.359944	46.359944	42.719111	16.019667	-7.038944	11.165222
781.454248	36.165611	36.165611	85.923667	51.942556	88.350889	110.195889
781.772396	-24.757667	-24.757667	12.864278	35.922889	6.796222	56.554278
782.090490	2.669944	2.669944	-3.398111	-10.679778	-5.825333	-9.466167
782.408531	34.709278	34.709278	5.582611	-5.339889	39.563722	40.777333
782.726518	43.932722	43.932722	19.660500	11.165222	33.010222	0.242722
783.044452	5.097167	5.097167	19.660500	20.874111	-0.970889	-22.815889
783.362333	30.097556	30.097556	-7.524389	15.534222	19.175056	-26.942167
783.680159	32.282056	32.282056	71.117611	10.437056	38.350111	9.223444
783.997933	60.437833	60.437833	100.487000	117.477556	45.874500	27.670333
784.315653	32.767500	32.767500	21.845000	44.903611	35.194722	30.340278
784.633319	30.340278	30.340278	41.262778	69.175833	30.340278	24.272222
784.950932	88.108167	88.108167	60.195111	61.408722	77.185667	38.350111
785.268491	37.136500	37.136500	18.932333	69.904000	85.680944	43.204556
785.585996	3.883556	3.883556	50.000778	37.864667	16.019667	17.233278
785.903448	24.514944	24.514944	-20.388667	13.592444	60.923278	58.496056
786.220847	-9.708889	-9.708889	54.612500	36.408333	50.971667	60.680556
786.538191	28.641222	28.641222	75.972056	67.476778	68.690389	46.845389
786.855482	50.971667	50.971667	36.408333	41.262778	82.525556	108.011389
787.172720	59.224222	59.224222	42.233667	87.137278	38.592833	14.320611
787.489903	7.038944	7.038944	8.252556	19.175056	8.252556	21.602278
787.807033	-22.815889	-22.815889	23.301333	31.796611	9.951611	35.437444
788.124110	32.039333	32.039333	68.447667	34.466556	39.321000	36.893778
788.441132	57.767889	57.767889	58.981500	73.544833	52.913444	77.185667
788.758101	74.515722	74.515722	67.234056	115.778500	76.942944	123.060167
789.075016	56.797000	56.797000	129.613667	93.205333	65.292278	99.273389
789.391877	-9.951611	-9.951611	45.874500	-14.806056	-9.951611	-13.592444
789.708685	34.466556	34.466556	-52.913444	-0.728167	-16.505111	-5.582611
790.025438	-22.330444	-22.330444	12.864278	-40.534611	33.495667	11.650667
790.342138	15.048778	15.048778	17.476000	29.612111	29.612111	29.612111
790.658784	49.515333	49.515333	2.184500	-26.942167	19.175056	11.893389
790.975376	42.476389	42.476389	44.903611	41.262778	91.020833	19.417778
791.291915	58.496056	58.496056	87.622722	37.864667	80.341056	36.651056
791.608399	94.904389	94.904389	20.874111	-0.970889	56.068833	35.437444
791.924830	2.669944	2.669944	43.932722	16.019667	-31.311167	-5.825333
792.241206	-58.010611	-58.010611	3.883556	-21.602278	6.310778	11.165222
792.557529	10.194333	10.194333	80.583778	35.680167	76.942944	73.302111
792.873798	18.446889	18.446889	17.233278	37.864667	5.097167	-11.893389
793.190012	60.923278	60.923278	30.583000	37.864667	19.660500	71.845778
793.506173	1.941778	1.941778	14.077889	4.369000	40.777333	33.495667
793.822280	71.845778	71.845778	24.514944	-14.320611	9.951611	9.951611
794.138333	22.330444	22.330444	-1.941778	32.039333	32.039333	50.243500
794.454332	54.855222	54.855222	48.787167	37.864667	93.690778	18.446889
794.770277	39.563722	39.563722	32.282056	75.972056	86.894556	65.049556
795.086167	29.854833	29.854833	51.699833	57.767889	45.631778	92.962611
795.402004	-0.242722	-0.242722	-1.456333	38.592833	44.660889	32.524778
795.717787	67.962222	67.962222	42.476389	-24.272222	64.321389	16.990556
796.033515	-5.582611	-5.582611	-14.077889	-14.077889	-46.845389	0.485444
796.349190	-14.077889	-14.077889	24.757667	2.912667	16.262389	29.612111
796.664810	69.904000	69.904000	62.622333	114.807611	101.457889	106.312333
796.980376	29.369389	29.369389	59.709667	36.651056	34.223833	23.301333
797.295888	38.592833	38.592833	41.020056	45.874500	-24.514944	4.611722
797.611346	43.447278	43.447278	50.728944	31.311167	20.388667	5.825333
797.926750	25.000389	25.000389	21.359556	66.263167	58.981500	52.913444
798.242099	68.447667	68.447667	80.583778	78.156556	62.379611	69.661278
798.557394	79.370167	79.370167	126.701000	96.360722	127.914611	96.360722
798.872635	42.476389	42.476389	77.671111	74.030278	10.922500	40.049167
799.187822	36.651056	36.651056	42.719111	23.301333	54.855222	31.796611
799.502955	58.253333	58.253333	54.612500	98.302500	66.748611	47.330833
799.818033	12.621556	12.621556	0.485444	16.262389	76.942944	55.097944
800.133057	2.427222	2.427222	1.213611	13.349722	41.262778	29.126667
800.448027	83.253722	83.253722	88.108167	88.108167	60.195111	107.525944
800.762942	24.029500	24.029500	0.970889	58.010611	-48.787167	30.097556
801.077803	32.524778	32.524778	30.097556	41.020056	47.088111	32.524778
801.392610	-13.107000	-13.107000	-0.970889	7.524389	-56.797000	-33.738389
801.707362	63.107778	63.107778	72.816667	88.593611	46.117222	42.476389
802.022060	11.407944	11.407944	16.262389	51.457111	0.485444	28.398500
802.336703	58.981500	58.981500	119.662056	58.981500	40.777333	73.544833
802.651292	30.583000	30.583000	48.787167	6.310778	33.010222	28.155778
802.965827	6.068056	6.068056	27.913056	18.204167	18.204167	55.826111
803.280307	16.505111	16.505111	-0.485444	23.786778	105.098722	22.573167
803.594733	48.544444	48.544444	43.690000	-4.854444	42.476389	82.525556
803.909104	3.883556	3.883556	48.787167	14.806056	33.010222	48.787167
804.223421	41.748222	41.748222	25.971278	23.544056	52.670722	83.011000
804.537684	41.020056	41.020056	15.534222	-58.496056	51.942556	-13.592444
804.851891	-18.689611	-18.689611	28.641222	-1.699056	33.495667	3.155389
805.166045	16.747833	16.747833	14.320611	-22.087722	48.301722	11.893389
805.480143	50.000778	50.000778	30.583000	16.019667	-11.893389	31.796611
805.794188	60.680556	60.680556	25.485833	65.535000	-12.136111	89.807222
806.108177	49.758056	49.758056	69.175833	9.708889	-23.058611	3.640833
806.422112	129.370944	129.370944	165.779278	151.215944	145.147889	123.302889
806.735993	57.282444	57.282444	45.146333	-4.611722	35.437444	-5.825333
807.049818	68.933111	68.933111	78.642000	34.952000	77.428389	30.097556
807.363590	71.845778	71.845778	59.709667	36.651056	52.428000	7.524389
807.677306	57.525167	57.525167	76.942944	78.156556	11.407944	68.447667
807.990968	36.893778	36.893778	66.020444	0.485444	42.961833	42.961833
808.304575	67.234056	67.234056	89.079056	102.428778	64.806833	112.137667
808.618128	42.476389	42.476389	24.272222	44.903611	25.485833	82.525556
808.931625	23.301333	23.301333	94.904389	116.749389	97.331611	36.651056
809.245068	7.038944	7.038944	25.243111	-0.242722	14.320611	-8.738000
809.558457	20.388667	20.388667	-37.864667	-14.806056	-45.146333	-40.291889
809.871790	87.622722	87.622722	47.573556	138.594389	7.524389	37.864667
810.185069	44.903611	44.903611	9.708889	89.807222	38.835556	67.962222
810.498293	129.370944	129.370944	112.380389	77.185667	65.049556	91.749000
810.811462	43.690000	43.690000	66.748611	69.175833	72.816667	49.758056
811.124576	71.603056	71.603056	72.816667	19.417778	54.612500	26.699444
811.437636	26.699444	26.699444	7.281667	35.194722	29.126667	-4.854444
811.750640	76.700222	76.700222	23.301333	39.078278	25.728556	7.524389
812.063590	76.457500	76.457500	46.117222	65.535000	52.185278	37.621944
812.376485	100.972444	100.972444	62.136889	54.855222	75.486611	50.000778
812.689325	25.971278	25.971278	-4.369000	17.476000	81.797389	-27.427611
813.002110	92.719889	92.719889	41.748222	29.612111	42.961833	51.457111
813.314840	42.476389	42.476389	37.621944	31.553889	72.816667	63.107778
813.627516	36.408333	36.408333	47.330833	57.039722	43.690000	75.243889
813.940136	27.913056	27.913056	-4.854444	19.417778	29.126667	4.854444
814.252701	47.088111	47.088111	45.874500	65.292278	51.942556	50.728944
814.565212	62.622333	62.622333	41.990944	29.854833	34.709278	83.253722
814.877667	8.738000	8.738000	-24.029500	-49.515333	-26.456722	-27.670333
815.190067	114.322167	114.322167	114.322167	137.380778	57.282444	124.031056
815.502413	77.428389	77.428389	111.409500	50.728944	33.738389	48.301722
815.814703	69.418556	69.418556	85.195500	65.777722	51.214389	77.913833
816.126938	46.602667	46.602667	108.496833	76.942944	53.884333	80.583778
816.439118	66.505889	66.505889	38.592833	70.146722	43.447278	41.020056
816.751243	32.039333	32.039333	24.757667	50.243500	-38.350111	-55.340667
817.063313	46.602667	46.602667	62.379611	64.806833	36.893778	84.224611
817.375328	57.282444	57.282444	29.369389	28.155778	19.660500	65.777722
817.687287	40.049167	40.049167	59.466944	41.262778	21.845000	55.826111
817.999192	63.835944	63.835944	41.990944	73.544833	62.622333	51.699833
818.311041	71.603056	71.603056	47.330833	63.107778	70.389444	52.185278
818.622835	9.708889	9.708889	49.758056	61.894167	61.894167	16.990556
818.934574	56.311556	56.311556	80.583778	61.166000	32.039333	51.457111
819.246258	-17.476000	-17.476000	38.350111	1.941778	4.369000	14.077889
819.557887	45.631778	45.631778	20.145944	45.631778	29.854833	27.427611
819.869460	18.446889	18.446889	11.165222	33.010222	20.874111	-8.252556
820.180978	29.612111	29.612111	-18.932333	30.825722	6.553500	18.689611
820.492441	3.883556	3.883556	58.496056	12.378833	48.787167	16.019667
820.803848	23.544056	23.544056	-3.155389	57.525167	133.982667	40.534611
821.115200	33.252944	33.252944	27.184889	46.602667	40.534611	40.534611
821.426497	13.835167	13.835167	68.447667	56.311556	32.039333	29.612111
821.737739	-20.874111	-20.874111	81.069222	32.524778	13.107000	25.243111
822.048925	78.642000	78.642000	90.778111	54.369778	73.787556	37.379222
822.360056	45.874500	45.874500	20.388667	31.311167	108.982278	42.233667
822.671131	16.019667	16.019667	29.369389	5.097167	29.369389	33.010222
822.982151	28.398500	28.398500	-22.573167	0.485444	-20.145944	15.048778
823.293116	42.233667	42.233667	-22.087722	-17.233278	53.156167	-8.738000
823.604025	18.932333	18.932333	23.786778	33.495667	12.864278	-7.767111
823.914879	11.165222	11.165222	35.437444	17.233278	-15.534222	12.378833
824.225677	59.952389	59.952389	18.689611	16.262389	-1.941778	51.457111
824.536420	6.310778	6.310778	3.883556	77.913833	-14.320611	92.477167
824.847107	37.136500	37.136500	48.059000	-17.476000	26.214000	82.040111
825.157739	16.505111	16.505111	-12.621556	-6.553500	31.068444	32.282056
825.468315	-25.000389	-25.000389	-45.631778	47.816278	6.553500	-4.369000
825.778836	65.777722	65.777722	54.855222	97.331611	71.845778	91.263556
826.089301	28.155778	28.155778	53.641611	64.564111	19.660500	26.942167
826.399711	-1.699056	-1.699056	82.040111	73.544833	40.777333	18.932333
826.710065	10.679778	10.679778	62.865056	59.224222	7.038944	39.806444
827.020363	60.437833	60.437833	87.137278	133.254500	94.418944	96.846167
827.330606	-19.175056	-19.175056	-49.515333	-20.388667	30.583000	12.378833
827.640794	5.339889	5.339889	34.466556	59.952389	11.407944	64.806833
827.950925	-6.310778	-6.310778	60.437833	39.806444	32.524778	37.379222
828.261001	66.263167	66.263167	72.331222	96.603444	89.321778	122.089278
828.571022	67.962222	67.962222	-29.126667	-23.058611	-31.553889	-2.427222
828.880986	64.078667	64.078667	50.728944	45.874500	20.388667	56.797000
829.190895	71.360333	71.360333	102.914222	34.952000	75.001167	-8.738000
829.500749	16.990556	16.990556	26.699444	89.807222	57.039722	52.185278
829.810546	46.602667	46.602667	49.029889	96.360722	19.903222	19.903222
830.120288	72.573944	72.573944	27.670333	8.252556	49.515333	4.611722
830.429974	97.817056	97.817056	74.758444	72.331222	34.709278	34.709278
830.739604	27.913056	27.913056	8.495278	66.748611	42.476389	13.349722
831.049179	70.632167	70.632167	54.855222	103.399667	52.428000	28.155778
831.358697	49.029889	49.029889	-16.505111	68.447667	38.107389	46.602667
831.668160	50.000778	50.000778	36.651056	45.146333	41.505500	68.204944
831.977567	40.777333	40.777333	120.875667	6.796222	-5.339889	67.476778
832.286918	2.427222	2.427222	26.699444	66.748611	69.175833	103.156944
832.596213	-12.864278	-12.864278	36.893778	21.116833	-15.291500	-28.641222
832.905453	-16.262389	-16.262389	-0.485444	58.981500	51.699833	65.049556
833.214636	21.116833	21.116833	-6.796222	0.485444	7.767111	-14.077889
833.523764	-12.378833	-12.378833	20.388667	37.379222	68.933111	15.534222
833.832836	66.991333	66.991333	14.806056	48.787167	57.282444	41.505500
834.141851	33.495667	33.495667	29.854833	46.845389	41.990944	63.835944
834.450811	-46.359944	-46.359944	-24.514944	-23.301333	-76.700222	-31.796611
834.759715	-3.398111	-3.398111	24.514944	37.864667	6.310778	34.223833
835.068563	29.612111	29.612111	10.194333	-18.932333	15.048778	8.980722
835.377355	45.389056	45.389056	67.234056	39.321000	-4.369000	17.476000
835.686091	24.514944	24.514944	53.641611	22.087722	34.223833	0.242722
835.994770	51.699833	51.699833	10.437056	3.155389	15.291500	3.155389
836.303394	40.291889	40.291889	51.214389	57.282444	53.641611	77.913833
836.611962	47.088111	47.088111	44.660889	104.127833	17.961444	66.505889
836.920473	59.952389	59.952389	66.020444	55.097944	47.816278	39.321000
837.228929	-15.291500	-15.291500	-37.136500	-4.369000	-32.282056	28.398500
837.537328	-15.048778	-15.048778	12.864278	8.009833	43.204556	46.845389
837.845672	120.632944	120.632944	92.719889	100.001556	86.651833	153.400444
838.153959	7.767111	7.767111	8.980722	-15.291500	36.893778	17.476000
838.462190	28.155778	28.155778	73.059389	82.768278	52.428000	126.458278
838.770365	75.001167	75.001167	67.719500	87.137278	73.787556	124.759222
839.078483	25.728556	25.728556	28.155778	30.583000	37.864667	47.573556
839.386546	77.671111	77.671111	52.185278	30.340278	47.330833	18.204167
839.694552	22.815889	22.815889	62.865056	11.893389	33.738389	44.660889
840.002502	66.020444	66.020444	45.389056	-15.291500	53.884333	72.088500
840.310396	72.088500	72.088500	62.379611	21.116833	-17.718722	69.661278
840.618233	-3.883556	-3.883556	19.175056	-16.019667	25.243111	31.311167
840.926015	115.050333	115.050333	87.137278	145.390611	122.332000	105.341444
841.233739	-0.728167	-0.728167	11.407944	12.621556	24.757667	17.476000
841.541408	68.447667	68.447667	72.088500	73.302111	124.273778	70.874889
841.849020	43.447278	43.447278	11.893389	28.883944	53.156167	0.970889
842.156576	64.321389	64.321389	8.495278	23.058611	13.349722	-3.640833
842.464076	23.058611	23.058611	48.544444	59.466944	43.690000	35.194722
842.771519	50.000778	50.000778	35.437444	9.951611	56.068833	29.369389
843.078906	18.446889	18.446889	-5.825333	-17.961444	-13.107000	-24.029500
843.386237	57.525167	57.525167	66.020444	39.321000	25.971278	-14.077889
843.693511	24.514944	24.514944	23.301333	26.942167	39.078278	3.883556
844.000729	4.611722	4.611722	47.088111	64.078667	32.524778	65.292278
844.307890	2.427222	2.427222	-8.495278	-14.563333	-14.563333	6.068056
844.614995	82.040111	82.040111	44.418167	34.709278	38.350111	83.253722
844.922043	72.088500	72.088500	-29.854833	21.116833	55.097944	-6.796222
845.229035	-26.699444	-26.699444	-10.922500	-2.427222	2.427222	-8.495278
845.535970	10.679778	10.679778	37.379222	36.165611	43.447278	20.388667
845.842849	-10.194333	-10.194333	54.127056	11.650667	-13.835167	0.728167
846.149671	16.990556	16.990556	-4.854444	76.457500	53.398889	24.272222
846.456437	93.205333	93.205333	55.583389	53.156167	54.369778	99.273389
846.763146	25.243111	25.243111	61.651444	26.456722	11.893389	0.970889
847.069799	31.311167	31.311167	48.301722	-12.378833	58.010611	11.893389
847.376395	55.097944	55.097944	47.816278	21.116833	52.670722	90.292667
847.682934	95.147111	95.147111	93.933500	69.661278	86.651833	69.661278
847.989417	4.126278	4.126278	-33.495667	11.407944	-15.291500	-25.000389
848.295843	24.757667	24.757667	-17.718722	25.971278	13.835167	79.370167
848.602213	83.011000	83.011000	40.534611	68.447667	8.980722	-10.437056
848.908526	31.553889	31.553889	15.776944	30.340278	2.427222	0.000000
849.214782	7.524389	7.524389	16.019667	18.446889	37.864667	19.660500
849.520981	61.651444	61.651444	34.952000	54.369778	43.447278	-6.310778
849.827124	40.534611	40.534611	8.980722	16.262389	5.339889	58.738778
850.133210	-75.486611	-75.486611	-48.787167	-23.301333	-58.496056	-18.446889
850.439239	15.048778	15.048778	18.689611	40.534611	28.398500	21.116833
850.745212	-18.204167	-18.204167	42.476389	78.884722	57.039722	2.427222
851.051128	15.291500	15.291500	45.631778	46.845389	44.418167	38.350111
851.356987	3.883556	3.883556	13.592444	43.932722	-22.815889	5.097167
851.662789	33.252944	33.252944	108.496833	89.079056	100.001556	86.651833
851.968534	47.816278	47.816278	55.097944	15.048778	7.767111	55.097944
852.274223	-41.020056	-41.020056	51.214389	23.301333	37.864667	14.806056
852.579854	89.321778	89.321778	-8.980722	31.068444	61.408722	-15.048778
852.885429	31.068444	31.068444	27.427611	-17.476000	25.000389	18.932333
853.190947	77.913833	77.913833	7.524389	16.019667	81.554667	50.000778
853.496408	-15.291500	-15.291500	13.835167	25.971278	34.466556	49.029889
853.801812	33.738389	33.738389	16.747833	13.107000	3.398111	27.670333
854.107160	-21.116833	-21.116833	21.359556	18.932333	16.505111	37.136500
854.412450	40.049167	40.049167	60.680556	20.631389	67.962222	46.117222
854.717683	50.486222	50.486222	67.476778	23.786778	27.427611	46.845389
855.022859	92.962611	92.962611	15.291500	73.544833	-17.476000	25.000389
855.327979	29.612111	29.612111	38.107389	5.339889	24.757667	-8.009833
855.633041	39.563722	39.563722	25.000389	50.486222	72.331222	68.690389
855.938046	66.263167	66.263167	90.535389	54.127056	83.253722	44.418167
856.242995	35.922889	35.922889	94.176222	54.127056	74.758444	33.495667
856.547886	18.204167	18.204167	1.213611	-4.854444	-35.194722	26.699444
856.852720	6.310778	6.310778	9.951611	-26.456722	30.583000	-0.970889
857.157497	53.641611	53.641611	13.592444	7.524389	1.456333	20.874111
857.462217	67.476778	67.476778	22.573167	56.554278	61.408722	56.554278
857.766880	24.272222	24.272222	13.349722	59.466944	3.640833	71.603056
858.071486	44.418167	44.418167	88.108167	50.486222	97.817056	56.554278
858.376035	24.514944	24.514944	-3.398111	18.446889	-24.029500	1.456333
858.680526	45.389056	45.389056	68.447667	-23.786778	-12.864278	32.039333
858.984961	24.029500	24.029500	-26.942167	38.592833	-23.301333	54.369778
859.289338	-19.417778	-19.417778	50.971667	23.058611	15.776944	12.136111
859.593658	45.389056	45.389056	46.602667	25.971278	42.961833	55.097944
859.897921	69.418556	69.418556	11.165222	111.894944	71.845778	76.700222
860.202126	39.321000	39.321000	39.321000	59.952389	62.379611	70.874889
860.506275	-40.534611	-40.534611	5.582611	-41.748222	-11.407944	-59.952389
860.810366	18.932333	18.932333	29.854833	1.941778	34.709278	58.981500
861.114399	29.369389	29.369389	79.127444	33.010222	41.505500	39.078278
861.418376	83.011000	83.011000	56.311556	67.234056	49.029889	73.302111
861.722295	64.078667	64.078667	76.214778	65.292278	42.233667	-1.456333
862.026157	44.418167	44.418167	14.077889	29.854833	14.077889	5.582611
862.329961	53.884333	53.884333	18.689611	35.680167	-18.932333	49.029889
862.633709	10.922500	10.922500	0.000000	1.213611	-15.776944	-26.699444
862.937398	93.690778	93.690778	111.894944	58.496056	54.855222	50.000778
863.241031	3.155389	3.155389	-1.699056	-0.485444	-41.748222	-7.767111
863.544606	35.194722	35.194722	48.544444	42.476389	53.398889	58.253333
863.848124	23.058611	23.058611	-15.776944	27.913056	20.631389	-46.117222
864.151584	82.040111	82.040111	92.962611	97.817056	61.408722	97.817056
864.454987	-25.728556	-25.728556	51.942556	13.107000	-8.738000	-26.942167
864.758332	-29.612111	-29.612111	-39.321000	-5.339889	-50.243500	-5.339889
865.061620	36.893778	36.893778	27.184889	23.544056	62.379611	81.797389
865.364850	91.991722	91.991722	88.350889	5.825333	111.409500	16.747833
865.668023	32.282056	32.282056	3.155389	1.941778	11.650667	-10.194333
865.971138	80.341056	80.341056	33.010222	65.777722	81.554667	40.291889
866.274196	49.272611	49.272611	27.427611	39.563722	16.505111	61.408722
866.577196	2.912667	2.912667	-9.223444	-11.650667	-23.786778	-6.796222
866.880139	57.282444	57.282444	22.087722	34.223833	68.204944	28.155778
867.183024	83.011000	83.011000	-20.145944	35.680167	40.534611	-25.000389
867.485852	72.331222	72.331222	66.263167	25.000389	48.059000	35.922889
867.788622	18.689611	18.689611	68.447667	42.961833	75.729333	84.224611
868.091334	21.602278	21.602278	39.806444	31.311167	31.311167	58.010611
868.393989	16.262389	16.262389	4.126278	18.689611	28.398500	42.961833
868.696586	4.854444	4.854444	37.621944	40.049167	-13.349722	7.281667
868.999125	38.107389	38.107389	93.933500	83.011000	6.553500	74.515722
869.301607	22.087722	22.087722	36.651056	39.078278	17.233278	28.155778
869.604031	27.427611	27.427611	63.835944	35.922889	34.709278	6.796222
869.906397	-8.495278	-8.495278	8.495278	18.204167	53.398889	-21.845000
870.208706	-35.680167	-35.680167	-38.107389	20.145944	28.641222	8.009833
870.510957	12.864278	12.864278	-39.321000	-2.912667	15.291500	22.573167
870.813150	-76.700222	-76.700222	-18.446889	-16.019667	-51.214389	-40.291889
871.115285	65.292278	65.292278	58.010611	81.069222	58.010611	102.914222
871.417363	92.962611	92.962611	44.418167	101.457889	25.000389	73.544833
871.719382	60.680556	60.680556	10.922500	0.000000	6.068056	80.098333
872.021344	14.563333	14.563333	46.117222	47.330833	35.194722	32.767500
872.323248	17.718722	17.718722	57.767889	54.127056	50.486222	39.563722
872.625094	-7.038944	-7.038944	12.378833	-3.398111	37.864667	-9.466167
872.926883	59.466944	59.466944	70.389444	59.466944	100.729722	67.962222
873.228613	-16.505111	-16.505111	19.903222	44.175444	17.476000	-11.650667
873.530286	83.011000	83.011000	46.602667	34.466556	61.166000	70.874889
873.831900	45.389056	45.389056	45.389056	28.398500	-0.728167	24.757667
874.133457	56.311556	56.311556	-61.408722	11.407944	16.262389	38.107389
874.434956	21.602278	21.602278	15.534222	-3.883556	55.583389	50.728944
874.736397	36.408333	36.408333	48.544444	111.652222	15.776944	63.107778
875.037780	16.262389	16.262389	36.893778	33.252944	0.485444	24.757667
875.339105	36.165611	36.165611	36.165611	-13.592444	28.883944	64.078667
875.640371	-51.214389	-51.214389	19.175056	9.466167	-1.456333	-18.446889
875.941580	-28.398500	-28.398500	21.359556	48.059000	46.845389	39.563722
876.242731	2.912667	2.912667	10.194333	28.398500	-3.155389	63.593222
876.543824	69.175833	69.175833	35.194722	-6.068056	35.194722	87.380000
876.844859	51.457111	51.457111	-3.155389	30.825722	-28.641222	-4.369000
877.145835	23.544056	23.544056	6.553500	68.447667	34.466556	47.816278
877.446754	23.786778	23.786778	44.418167	37.136500	-11.407944	38.350111
877.747614	14.806056	14.806056	13.592444	25.728556	-7.038944	-53.156167
878.048417	120.875667	120.875667	51.699833	117.234833	116.021222	107.525944
878.349161	-7.281667	-7.281667	21.845000	32.767500	-21.845000	9.708889
878.649847	23.058611	23.058611	16.990556	4.854444	-20.631389	26.699444
878.950475	43.690000	43.690000	58.253333	52.185278	76.457500	20.631389
879.251045	20.145944	20.145944	123.302889	82.040111	72.331222	66.263167
879.551556	10.437056	10.437056	-13.835167	-19.903222	52.913444	23.786778
879.852010	139.565278	139.565278	100.729722	50.971667	67.962222	105.584167
880.152405	34.223833	34.223833	20.874111	62.136889	50.000778	-13.107000
880.452741	-4.611722	-4.611722	-10.679778	20.874111	-0.970889	-7.038944
880.753020	52.670722	52.670722	-1.941778	-16.505111	-1.941778	36.893778
881.053240	76.700222	76.700222	36.651056	36.651056	60.923278	25.728556
881.353402	46.845389	46.845389	56.554278	85.680944	34.709278	57.767889
881.653506	26.699444	26.699444	26.699444	14.563333	42.476389	-20.631389
881.953552	27.913056	27.913056	25.485833	-2.427222	2.427222	8.495278
882.253539	61.166000	61.166000	22.330444	28.398500	-5.582611	35.680167
882.553467	19.175056	19.175056	10.679778	33.738389	81.069222	75.001167
882.853338	-36.651056	-36.651056	-35.437444	-17.233278	-7.524389	33.738389
883.153150	7.524389	7.524389	-38.592833	48.787167	43.932722	41.505500
883.452903	-12.378833	-12.378833	17.961444	50.728944	20.388667	47.088111
883.752598	51.214389	51.214389	26.942167	94.904389	28.155778	11.165222
884.052235	-0.728167	-0.728167	-18.932333	-10.437056	39.321000	46.602667
884.351814	-44.175444	-44.175444	37.136500	11.650667	-2.912667	-21.116833
884.651333	-28.641222	-28.641222	35.680167	-4.369000	27.184889	51.457111
884.950795	3.155389	3.155389	4.369000	29.854833	35.922889	20.145944
885.250198	-8.252556	-8.252556	57.282444	54.855222	-17.961444	48.787167
885.549542	11.893389	11.893389	-5.097167	14.320611	-11.165222	-0.242722
885.848828	32.524778	32.524778	54.369778	-42.719111	-2.669944	67.719500
886.148055	58.981500	58.981500	66.263167	27.427611	33.495667	46.845389
886.447224	38.350111	38.350111	45.631778	49.272611	28.641222	16.505111
886.746335	0.000000	0.000000	-15.776944	69.175833	27.913056	16.990556
887.045386	-0.242722	-0.242722	-17.233278	26.456722	43.447278	-3.883556
887.344379	102.428778	102.428778	103.642389	129.128222	107.283222	34.466556
887.643314	31.311167	31.311167	36.165611	20.388667	20.388667	48.301722
887.942190	-51.457111	-51.457111	-0.485444	8.009833	-44.175444	37.136500
888.241007	7.038944	7.038944	-11.165222	33.738389	-26.942167	38.592833
888.539766	22.087722	22.087722	-50.728944	-7.038944	7.524389	7.524389
888.838465	0.485444	0.485444	23.544056	23.544056	19.903222	-6.796222
889.137107	16.019667	16.019667	56.068833	31.796611	-3.398111	98.545222
889.435689	1.699056	1.699056	47.816278	11.407944	42.961833	49.029889
889.734213	61.166000	61.166000	127.914611	100.001556	100.001556	100.001556
890.032678	32.039333	32.039333	102.428778	73.302111	57.525167	70.874889
890.331085	-14.077889	-14.077889	16.262389	-3.155389	-12.864278	25.971278
