wavelength	0.010426	0.010642	0.010541	0.010298	0.010260	0.010592

178.106480	18.689611	10.194333	-9.223444	-9.223444	-0.728167	-0.728167
178.493382	18.689611	10.194333	-9.223444	-9.223444	-0.728167	-0.728167
178.880256	18.689611	10.194333	-9.223444	-9.223444	-0.728167	-0.728167
179.267103	56.311556	-3.155389	17.476000	17.476000	12.621556	12.621556
179.653922	-45.389056	12.864278	-28.398500	-28.398500	-19.903222	-19.903222
180.040713	26.456722	60.437833	36.165611	36.165611	51.942556	51.942556
180.427476	13.349722	12.136111	35.194722	35.194722	88.593611	88.593611
180.814211	51.699833	-5.339889	14.077889	14.077889	45.631778	45.631778
181.200918	37.864667	36.651056	53.641611	53.641611	47.573556	47.573556
181.587598	39.563722	90.535389	122.089278	122.089278	29.854833	29.854833
181.974250	102.914222	41.020056	93.205333	93.205333	48.301722	48.301722
182.360873	55.340667	50.486222	52.913444	52.913444	41.990944	41.990944
182.747469	27.670333	77.428389	50.728944	50.728944	98.059778	98.059778
183.134037	-23.058611	35.194722	118.933889	118.933889	35.194722	35.194722
183.520577	91.263556	143.448833	121.603833	121.603833	128.885500	128.885500
183.907089	36.408333	50.971667	76.457500	76.457500	48.544444	48.544444
184.293573	90.778111	14.320611	68.933111	68.933111	37.379222	37.379222
184.680029	37.864667	41.505500	83.981889	83.981889	37.864667	37.864667
185.066457	132.040889	125.972833	142.963389	142.963389	130.827278	130.827278
185.452857	114.322167	107.040500	107.040500	107.040500	166.507444	166.507444
185.839229	50.000778	51.214389	50.000778	50.000778	41.505500	41.505500
186.225573	120.147500	109.225000	40.049167	40.049167	111.652222	111.652222
186.611889	25.728556	39.078278	7.524389	7.524389	6.310778	6.310778
186.998176	40.049167	61.894167	87.380000	87.380000	74.030278	74.030278
187.384436	76.214778	30.097556	129.613667	129.613667	59.224222	59.224222
187.770668	54.612500	61.894167	61.894167	61.894167	121.361111	121.361111
188.156871	110.195889	83.496444	93.205333	93.205333	121.118389	121.118389
188.543046	84.224611	91.506278	89.079056	89.079056	121.846556	121.846556
188.929193	48.787167	16.019667	60.923278	60.923278	110.681333	110.681333
189.315312	65.777722	31.796611	74.273000	74.273000	92.477167	92.477167
189.701403	45.874500	85.923667	60.437833	60.437833	70.146722	70.146722
190.087466	108.739556	120.875667	43.204556	43.204556	119.662056	119.662056
190.473500	72.573944	81.069222	83.496444	83.496444	61.651444	61.651444
190.859506	159.468500	132.769056	155.827667	155.827667	121.846556	121.846556
191.245484	87.622722	116.749389	23.301333	23.301333	51.214389	51.214389
191.631434	74.758444	71.117611	45.631778	45.631778	40.777333	40.777333
192.017355	96.118000	86.409111	131.312722	131.312722	158.012167	158.012167
192.403248	37.379222	76.214778	118.691167	118.691167	113.836722	113.836722
192.789113	57.039722	82.525556	70.389444	70.389444	46.117222	46.117222
193.174949	96.360722	34.466556	92.719889	92.719889	116.992111	116.992111
193.560757	84.224611	78.156556	90.292667	90.292667	64.806833	64.806833
193.946537	100.244278	102.671500	122.089278	122.089278	88.108167	88.108167
194.332288	111.652222	129.856389	140.778889	140.778889	108.011389	108.011389
194.718011	95.632556	55.583389	89.564500	89.564500	82.282833	82.282833
195.103705	74.273000	105.826889	82.768278	82.768278	92.477167	92.477167
195.489371	43.447278	82.282833	-6.310778	-6.310778	50.728944	50.728944
195.875009	58.253333	36.408333	47.330833	47.330833	64.321389	64.321389
196.260618	83.496444	101.700611	117.477556	117.477556	77.428389	77.428389
196.646199	31.553889	66.748611	-3.640833	-3.640833	32.767500	32.767500
197.031751	45.146333	80.341056	37.864667	37.864667	40.291889	40.291889
197.417275	96.846167	66.505889	78.642000	78.642000	54.369778	54.369778
197.802771	-0.485444	-18.689611	-44.175444	-44.175444	11.650667	11.650667
198.188237	62.622333	65.049556	17.718722	17.718722	96.603444	96.603444
198.573676	45.146333	107.040500	75.486611	75.486611	63.350500	63.350500
198.959085	52.913444	3.155389	38.350111	38.350111	72.331222	72.331222
199.344466	37.379222	21.602278	-11.165222	-11.165222	79.855611	79.855611
199.729819	54.369778	79.855611	91.991722	91.991722	82.282833	82.282833
200.115143	107.768667	44.660889	124.759222	124.759222	78.642000	78.642000
200.500438	81.069222	81.069222	54.369778	54.369778	53.156167	53.156167
200.885705	6.068056	47.330833	40.049167	40.049167	21.845000	21.845000
201.270943	120.875667	107.525944	174.274556	174.274556	152.429556	152.429556
201.656152	25.971278	41.748222	53.884333	53.884333	15.048778	15.048778
202.041333	163.837500	75.243889	135.924444	135.924444	106.797778	106.797778
202.426485	48.059000	58.981500	91.749000	91.749000	41.990944	41.990944
202.811608	99.758833	79.127444	81.554667	81.554667	23.301333	23.301333
203.196703	-2.669944	21.602278	21.602278	21.602278	33.738389	33.738389
203.581769	63.107778	3.640833	54.612500	54.612500	44.903611	44.903611
203.966806	55.826111	76.457500	42.476389	42.476389	75.243889	75.243889
204.351814	51.942556	37.379222	56.797000	56.797000	81.069222	81.069222
204.736794	13.107000	30.097556	5.825333	5.825333	36.165611	36.165611
205.121745	30.340278	66.748611	60.680556	60.680556	93.448056	93.448056
205.506667	116.992111	120.632944	79.370167	79.370167	116.992111	116.992111
205.891560	57.039722	20.631389	-7.281667	-7.281667	10.922500	10.922500
206.276424	48.544444	70.389444	27.913056	27.913056	27.913056	27.913056
206.661260	81.069222	54.369778	75.001167	75.001167	101.700611	101.700611
207.046066	75.001167	115.050333	62.865056	62.865056	98.059778	98.059778
207.430844	80.341056	128.885500	104.613278	104.613278	108.254111	108.254111
207.815593	63.350500	76.700222	45.146333	45.146333	17.233278	17.233278
208.200313	54.127056	96.603444	55.340667	55.340667	65.049556	65.049556
208.585003	19.903222	24.757667	84.224611	84.224611	-18.932333	-18.932333
208.969665	60.195111	68.690389	26.214000	26.214000	78.399278	78.399278
209.354299	87.137278	93.205333	106.555056	106.555056	84.710056	84.710056
209.738903	36.408333	23.058611	32.767500	32.767500	-29.126667	-29.126667
210.123478	33.010222	92.477167	37.864667	37.864667	59.709667	59.709667
210.508024	38.835556	37.621944	63.107778	63.107778	50.971667	50.971667
210.892541	64.321389	41.262778	23.058611	23.058611	67.962222	67.962222
211.277029	115.050333	91.991722	104.127833	104.127833	67.719500	67.719500
211.661488	109.953167	111.166778	69.904000	69.904000	56.554278	56.554278
212.045918	61.651444	91.991722	53.156167	53.156167	44.660889	44.660889
212.430318	12.864278	-24.757667	-1.699056	-1.699056	23.786778	23.786778
212.814690	119.176611	96.118000	165.293833	165.293833	119.176611	119.176611
213.199033	63.107778	-2.427222	4.854444	4.854444	63.107778	63.107778
213.583346	106.797778	16.990556	42.476389	42.476389	46.117222	46.117222
213.967631	88.108167	17.718722	55.340667	55.340667	39.563722	39.563722
214.351886	55.826111	46.117222	71.603056	71.603056	38.835556	38.835556
214.736112	56.797000	83.496444	94.418944	94.418944	64.078667	64.078667
215.120309	33.981111	54.612500	94.661667	94.661667	31.553889	31.553889
215.504476	-5.582611	30.825722	45.389056	45.389056	-3.155389	-3.155389
215.888615	107.283222	68.447667	57.525167	57.525167	107.283222	107.283222
216.272724	45.389056	41.748222	90.292667	90.292667	28.398500	28.398500
216.656804	96.846167	89.564500	94.418944	94.418944	99.273389	99.273389
217.040854	58.010611	49.515333	49.515333	49.515333	60.437833	60.437833
217.424876	75.486611	70.632167	110.681333	110.681333	83.981889	83.981889
217.808868	103.642389	148.546000	93.933500	93.933500	81.797389	81.797389
218.192830	52.913444	74.758444	16.505111	16.505111	116.021222	116.021222
218.576764	33.010222	75.486611	34.223833	34.223833	41.505500	41.505500
218.960668	20.631389	48.544444	38.835556	38.835556	82.525556	82.525556
219.344543	83.496444	73.787556	94.418944	94.418944	37.379222	37.379222
219.728388	35.680167	34.466556	27.184889	27.184889	75.729333	75.729333
220.112204	105.341444	119.904778	139.322556	139.322556	141.749778	141.749778
220.495991	173.789111	109.467722	94.904389	94.904389	50.000778	50.000778
220.879748	115.535778	134.953556	107.040500	107.040500	100.972444	100.972444
221.263476	90.535389	74.758444	50.486222	50.486222	95.389833	95.389833
221.647174	44.418167	52.913444	100.244278	100.244278	91.749000	91.749000
222.030843	74.273000	50.000778	36.651056	36.651056	57.282444	57.282444
222.414482	61.894167	42.476389	88.593611	88.593611	66.748611	66.748611
222.798092	31.068444	51.699833	17.718722	17.718722	131.798167	131.798167
223.181672	14.320611	38.592833	24.029500	24.029500	9.466167	9.466167
223.565223	84.710056	34.952000	30.097556	30.097556	24.029500	24.029500
223.948744	100.244278	52.913444	91.749000	91.749000	89.321778	89.321778
224.332236	98.787944	118.205722	35.680167	35.680167	57.525167	57.525167
224.715698	133.739944	109.467722	133.739944	133.739944	124.031056	124.031056
225.099131	16.505111	40.777333	50.486222	50.486222	78.399278	78.399278
225.482534	53.641611	47.573556	54.855222	54.855222	29.369389	29.369389
225.865907	16.505111	41.990944	66.263167	66.263167	45.631778	45.631778
226.249251	75.486611	39.078278	50.000778	50.000778	30.583000	30.583000
226.632565	129.613667	115.050333	141.749778	141.749778	133.254500	133.254500
227.015850	83.981889	16.019667	71.845778	71.845778	93.690778	93.690778
227.399104	14.563333	4.854444	-9.708889	-9.708889	46.117222	46.117222
227.782329	-16.747833	0.242722	8.738000	8.738000	8.738000	8.738000
228.165525	23.786778	50.486222	28.641222	28.641222	38.350111	38.350111
228.548691	47.330833	63.107778	69.175833	69.175833	-31.553889	-31.553889
228.931827	21.359556	40.777333	54.127056	54.127056	-0.485444	-0.485444
229.314933	114.564889	90.292667	118.205722	118.205722	63.593222	63.593222
229.698009	52.185278	7.281667	44.903611	44.903611	0.000000	0.000000
230.081056	65.535000	74.030278	76.457500	76.457500	65.535000	65.535000
230.464073	121.603833	59.709667	62.136889	62.136889	69.418556	69.418556
230.847060	37.621944	47.330833	82.525556	82.525556	31.553889	31.553889
231.230017	105.341444	96.846167	81.069222	81.069222	82.282833	82.282833
231.612944	21.116833	5.339889	1.699056	1.699056	16.262389	16.262389
231.995842	56.554278	28.641222	56.554278	56.554278	33.495667	33.495667
232.378709	44.175444	51.457111	16.262389	16.262389	51.457111	51.457111
232.761547	108.254111	105.826889	111.894944	111.894944	109.467722	109.467722
233.144355	90.049944	13.592444	43.932722	43.932722	86.409111	86.409111
233.527133	135.924444	64.321389	66.748611	66.748611	80.098333	80.098333
233.909881	36.165611	48.301722	65.292278	65.292278	51.942556	51.942556
234.292599	29.126667	76.457500	18.204167	18.204167	-14.563333	-14.563333
234.675287	30.825722	103.642389	41.748222	41.748222	32.039333	32.039333
235.057945	29.126667	24.272222	55.826111	55.826111	88.593611	88.593611
235.440574	34.952000	60.437833	41.020056	41.020056	34.952000	34.952000
235.823172	37.864667	63.350500	74.273000	74.273000	48.787167	48.787167
236.205740	83.981889	100.972444	81.554667	81.554667	30.583000	30.583000
236.588278	80.583778	61.166000	91.506278	91.506278	44.175444	44.175444
236.970786	119.662056	130.584556	109.953167	109.953167	68.690389	68.690389
237.353264	67.476778	58.981500	92.962611	92.962611	69.904000	69.904000
237.735712	80.098333	91.020833	84.952778	84.952778	72.816667	72.816667
238.118130	63.835944	72.331222	37.136500	37.136500	90.535389	90.535389
238.500517	49.758056	60.680556	26.699444	26.699444	33.981111	33.981111
238.882875	58.738778	76.942944	72.088500	72.088500	129.128222	129.128222
239.265202	40.777333	75.972056	75.972056	75.972056	15.291500	15.291500
239.647499	68.933111	78.642000	99.273389	99.273389	32.524778	32.524778
240.029767	49.758056	26.699444	19.417778	19.417778	-4.854444	-4.854444
240.412003	63.835944	63.835944	39.563722	39.563722	15.291500	15.291500
240.794210	65.049556	35.922889	21.359556	21.359556	105.098722	105.098722
241.176387	56.554278	67.476778	55.340667	55.340667	100.244278	100.244278
241.558533	76.457500	67.962222	58.253333	58.253333	70.389444	70.389444
241.940649	42.476389	78.884722	31.553889	31.553889	32.767500	32.767500
242.322734	54.369778	77.428389	99.273389	99.273389	73.787556	73.787556
242.704790	36.165611	34.952000	-24.514944	-24.514944	0.970889	0.970889
243.086815	85.923667	62.865056	37.379222	37.379222	27.670333	27.670333
243.468810	16.262389	5.339889	8.980722	8.980722	32.039333	32.039333
243.850774	69.904000	68.690389	72.331222	72.331222	96.603444	96.603444
244.232709	106.312333	94.176222	56.554278	56.554278	111.166778	111.166778
244.614612	50.728944	36.165611	93.205333	93.205333	78.642000	78.642000
244.996486	41.020056	50.728944	60.437833	60.437833	17.961444	17.961444
245.378329	92.962611	21.359556	32.282056	32.282056	38.350111	38.350111
245.760142	26.699444	83.739167	14.563333	14.563333	35.194722	35.194722
246.141924	43.204556	63.835944	69.904000	69.904000	123.302889	123.302889
246.523676	46.602667	29.612111	62.379611	62.379611	4.126278	4.126278
246.905397	15.291500	62.622333	40.777333	40.777333	51.699833	51.699833
247.287088	66.505889	98.059778	111.409500	111.409500	105.341444	105.341444
247.668748	72.088500	56.311556	67.234056	67.234056	62.379611	62.379611
248.050378	88.593611	67.962222	66.748611	66.748611	47.330833	47.330833
248.431978	49.029889	61.166000	-34.709278	-34.709278	-14.077889	-14.077889
248.813547	102.914222	49.515333	99.273389	99.273389	56.797000	56.797000
249.195085	69.904000	69.904000	118.448444	118.448444	82.040111	82.040111
249.576593	26.942167	43.932722	63.350500	63.350500	45.146333	45.146333
249.958070	46.359944	58.496056	-11.893389	-11.893389	5.097167	5.097167
250.339517	66.505889	59.224222	42.233667	42.233667	101.700611	101.700611
250.720933	68.933111	64.078667	43.447278	43.447278	50.728944	50.728944
251.102318	89.807222	-2.427222	4.854444	4.854444	12.136111	12.136111
251.483673	64.806833	79.370167	36.893778	36.893778	66.020444	66.020444
251.864997	24.757667	38.107389	-10.437056	-10.437056	45.389056	45.389056
252.246291	64.321389	43.690000	41.262778	41.262778	75.243889	75.243889
252.627554	102.428778	70.874889	24.757667	24.757667	28.398500	28.398500
253.008786	100.729722	54.612500	88.593611	88.593611	70.389444	70.389444
253.389987	85.680944	79.612889	97.817056	97.817056	83.253722	83.253722
253.771158	55.340667	55.340667	90.535389	90.535389	41.990944	41.990944
254.152298	104.613278	113.108556	59.709667	59.709667	159.225778	159.225778
254.533408	80.098333	46.117222	44.903611	44.903611	74.030278	74.030278
254.914486	94.176222	106.312333	113.594000	113.594000	72.331222	72.331222
255.295534	83.253722	28.641222	75.972056	75.972056	61.408722	61.408722
255.676551	44.660889	30.097556	43.447278	43.447278	45.874500	45.874500
256.057537	68.447667	97.574333	92.719889	92.719889	80.583778	80.583778
256.438492	58.738778	55.097944	56.311556	56.311556	79.370167	79.370167
256.819417	35.194722	81.311944	52.185278	52.185278	52.185278	52.185278
257.200310	100.729722	44.903611	59.466944	59.466944	31.553889	31.553889
257.581173	46.117222	-52.185278	15.776944	15.776944	104.370556	104.370556
257.962005	63.593222	24.757667	49.029889	49.029889	-5.582611	-5.582611
258.342806	114.807611	114.807611	71.117611	71.117611	74.758444	74.758444
258.723576	87.380000	78.884722	26.699444	26.699444	30.340278	30.340278
259.104315	123.302889	100.244278	101.457889	101.457889	105.098722	105.098722
259.485023	73.059389	47.573556	54.855222	54.855222	52.428000	52.428000
259.865700	90.778111	61.651444	56.797000	56.797000	37.379222	37.379222
260.246347	21.602278	50.728944	95.632556	95.632556	65.292278	65.292278
260.626962	29.369389	93.690778	41.505500	41.505500	46.359944	46.359944
261.007546	47.573556	50.000778	31.796611	31.796611	58.496056	58.496056
261.388099	24.272222	26.699444	23.058611	23.058611	63.107778	63.107778
261.768621	69.175833	66.748611	100.729722	100.729722	98.302500	98.302500
262.149112	84.952778	127.429167	84.952778	84.952778	66.748611	66.748611
262.529573	81.311944	100.729722	31.553889	31.553889	18.204167	18.204167
262.910002	40.777333	51.699833	29.854833	29.854833	41.990944	41.990944
263.290399	40.777333	106.312333	61.408722	61.408722	68.690389	68.690389
263.670766	59.709667	54.855222	66.991333	66.991333	43.932722	43.932722
264.051102	46.602667	19.903222	11.407944	11.407944	28.398500	28.398500
264.431406	32.524778	27.670333	49.515333	49.515333	-9.951611	-9.951611
264.811680	16.262389	52.670722	66.020444	66.020444	17.476000	17.476000
265.191922	88.350889	55.583389	66.505889	66.505889	24.029500	24.029500
265.572133	-5.825333	62.136889	17.233278	17.233278	26.942167	26.942167
265.952313	67.719500	78.642000	73.787556	73.787556	42.233667	42.233667
266.332461	74.515722	53.884333	17.476000	17.476000	0.485444	0.485444
266.712578	65.049556	26.214000	45.631778	45.631778	-22.330444	-22.330444
267.092665	31.553889	42.476389	83.739167	83.739167	49.758056	49.758056
267.472719	78.156556	97.574333	132.769056	132.769056	55.097944	55.097944
267.852743	97.088889	112.865833	95.875278	95.875278	64.321389	64.321389
268.232735	56.311556	35.680167	58.738778	58.738778	72.088500	72.088500
268.612696	12.621556	-4.369000	22.330444	22.330444	11.407944	11.407944
268.992626	54.127056	68.690389	95.389833	95.389833	79.612889	79.612889
269.372524	22.573167	54.127056	43.204556	43.204556	18.932333	18.932333
269.752391	54.369778	62.865056	90.778111	90.778111	76.214778	76.214778
270.132226	17.718722	58.981500	31.068444	31.068444	26.214000	26.214000
270.512030	-15.291500	49.029889	78.156556	78.156556	79.370167	79.370167
270.891803	51.699833	15.291500	68.690389	68.690389	67.476778	67.476778
271.271545	49.515333	133.254500	95.632556	95.632556	58.010611	58.010611
271.651255	-18.932333	51.457111	5.339889	5.339889	-0.728167	-0.728167
272.030933	45.146333	98.545222	52.428000	52.428000	42.719111	42.719111
272.410580	24.029500	61.651444	20.388667	20.388667	39.806444	39.806444
272.790196	16.990556	76.457500	54.612500	54.612500	46.117222	46.117222
273.169780	22.087722	92.477167	17.233278	17.233278	74.273000	74.273000
273.549332	36.408333	49.758056	33.981111	33.981111	46.117222	46.117222
273.928853	84.224611	72.088500	132.769056	132.769056	51.457111	51.457111
274.308343	38.107389	67.234056	91.506278	91.506278	72.088500	72.088500
274.687800	35.680167	-39.563722	18.689611	18.689611	8.980722	8.980722
275.067227	82.040111	126.943722	125.730111	125.730111	78.399278	78.399278
275.446622	58.738778	83.011000	36.893778	36.893778	97.574333	97.574333
275.825985	57.525167	67.234056	18.689611	18.689611	49.029889	49.029889
276.205316	21.359556	61.408722	37.136500	37.136500	48.059000	48.059000
276.584616	33.981111	57.039722	95.875278	95.875278	104.370556	104.370556
276.963885	117.720278	59.466944	67.962222	67.962222	111.652222	111.652222
277.343121	41.748222	32.039333	5.339889	5.339889	89.079056	89.079056
277.722326	95.875278	143.206111	104.370556	104.370556	125.001944	125.001944
278.101499	81.797389	39.321000	15.048778	15.048778	35.680167	35.680167
278.480641	54.369778	79.855611	42.233667	42.233667	53.156167	53.156167
278.859751	80.583778	24.757667	-4.369000	-4.369000	42.961833	42.961833
279.238829	-26.699444	44.903611	33.981111	33.981111	19.417778	19.417778
279.617875	-19.175056	52.428000	47.573556	47.573556	25.728556	25.728556
279.996890	-7.038944	51.214389	65.777722	65.777722	39.078278	39.078278
280.375873	34.952000	77.428389	68.933111	68.933111	83.496444	83.496444
280.754824	37.864667	20.874111	69.418556	69.418556	40.291889	40.291889
281.133743	19.903222	45.389056	21.116833	21.116833	21.116833	21.116833
281.512631	71.603056	42.476389	54.612500	54.612500	64.321389	64.321389
281.891486	87.865444	44.175444	27.184889	27.184889	27.184889	27.184889
282.270310	-8.495278	64.321389	72.816667	72.816667	41.262778	41.262778
282.649102	24.757667	70.874889	72.088500	72.088500	75.729333	75.729333
283.027862	13.349722	40.049167	78.884722	78.884722	23.058611	23.058611
283.406590	54.855222	64.564111	74.273000	74.273000	58.496056	58.496056
283.785286	102.186056	102.186056	40.291889	40.291889	62.136889	62.136889
284.163950	92.477167	76.700222	76.700222	76.700222	71.845778	71.845778
284.542582	42.476389	74.030278	88.593611	88.593611	92.234444	92.234444
284.921183	92.234444	104.370556	43.690000	43.690000	77.671111	77.671111
285.299751	-36.651056	25.243111	56.797000	56.797000	38.592833	38.592833
285.678287	77.185667	61.408722	17.718722	17.718722	20.145944	20.145944
286.056792	20.145944	9.223444	58.981500	58.981500	25.000389	25.000389
286.435264	54.855222	45.146333	45.146333	45.146333	60.923278	60.923278
286.813704	-8.980722	57.767889	61.408722	61.408722	-18.689611	-18.689611
287.192112	94.176222	128.157333	122.089278	122.089278	67.476778	67.476778
287.570489	14.077889	15.291500	17.718722	17.718722	21.359556	21.359556
287.948833	51.457111	141.264333	91.506278	91.506278	123.060167	123.060167
288.327145	6.553500	8.980722	47.816278	47.816278	6.553500	6.553500
288.705425	60.680556	27.913056	99.516111	99.516111	88.593611	88.593611
289.083672	91.749000	63.835944	136.652611	136.652611	83.253722	83.253722
289.461888	93.933500	125.487389	56.311556	56.311556	129.128222	129.128222
289.840071	85.438222	21.116833	67.234056	67.234056	30.825722	30.825722
290.218223	66.991333	-0.970889	77.913833	77.913833	22.087722	22.087722
290.596342	33.981111	36.408333	57.039722	57.039722	47.330833	47.330833
290.974429	0.242722	-32.524778	56.068833	56.068833	8.738000	8.738000
291.352483	16.019667	28.155778	39.078278	39.078278	57.282444	57.282444
291.730506	83.253722	88.108167	39.563722	39.563722	69.904000	69.904000
292.108496	8.495278	42.476389	36.408333	36.408333	15.776944	15.776944
292.486454	-19.660500	60.437833	81.069222	81.069222	19.175056	19.175056
292.864379	57.039722	3.640833	38.835556	38.835556	66.748611	66.748611
293.242273	-21.116833	1.941778	39.563722	39.563722	-6.553500	-6.553500
293.620134	107.040500	115.535778	103.399667	103.399667	133.739944	133.739944
293.997963	156.313111	95.632556	65.292278	65.292278	122.332000	122.332000
294.375759	57.767889	46.845389	-0.485444	-0.485444	48.059000	48.059000
294.753523	55.826111	23.058611	72.816667	72.816667	71.603056	71.603056
295.131255	72.088500	40.534611	84.224611	84.224611	-10.437056	-10.437056
295.508954	135.681722	71.360333	111.409500	111.409500	122.332000	122.332000
295.886621	45.631778	-5.339889	48.059000	48.059000	29.854833	29.854833
296.264255	230.100667	232.527889	242.236778	242.236778	190.051500	190.051500
296.641857	63.350500	70.632167	3.883556	3.883556	11.165222	11.165222
297.019427	121.603833	66.991333	52.428000	52.428000	96.118000	96.118000
297.396964	3.398111	-1.456333	42.233667	42.233667	56.797000	56.797000
297.774469	60.437833	21.602278	-0.242722	-0.242722	14.320611	14.320611
298.151941	65.777722	51.214389	99.758833	99.758833	73.059389	73.059389
298.529380	13.349722	63.107778	78.884722	78.884722	87.380000	87.380000
298.906788	-16.505111	62.379611	49.029889	49.029889	41.748222	41.748222
299.284162	171.847333	125.730111	165.779278	165.779278	211.896500	211.896500
299.661504	70.389444	81.311944	81.311944	81.311944	52.185278	52.185278
300.038814	37.136500	41.990944	77.185667	77.185667	118.448444	118.448444
300.416090	52.428000	33.010222	113.108556	113.108556	47.573556	47.573556
300.793335	97.331611	103.399667	127.671889	127.671889	145.876056	145.876056
301.170546	40.777333	51.699833	39.563722	39.563722	11.650667	11.650667
301.547726	33.252944	11.407944	45.389056	45.389056	51.457111	51.457111
301.924872	46.845389	82.040111	28.641222	28.641222	79.612889	79.612889
302.301986	90.778111	56.797000	82.282833	82.282833	51.942556	51.942556
302.679067	66.505889	56.797000	72.573944	72.573944	47.088111	47.088111
303.056115	37.621944	52.185278	89.807222	89.807222	65.535000	65.535000
303.433131	76.457500	3.640833	9.708889	9.708889	26.699444	26.699444
303.810114	77.913833	77.913833	40.291889	40.291889	92.477167	92.477167
304.187064	-17.476000	-15.048778	-18.689611	-18.689611	-13.835167	-13.835167
304.563982	134.953556	73.059389	100.972444	100.972444	57.282444	57.282444
304.940866	45.389056	38.107389	6.553500	6.553500	68.447667	68.447667
305.317718	57.767889	16.505111	49.272611	49.272611	3.155389	3.155389
305.694537	48.301722	-19.660500	-19.660500	-19.660500	15.534222	15.534222
306.071324	97.574333	78.156556	74.515722	74.515722	83.011000	83.011000
306.448077	95.389833	78.399278	74.758444	74.758444	78.399278	78.399278
306.824798	69.661278	83.011000	56.311556	56.311556	103.642389	103.642389
307.201486	48.301722	62.865056	36.165611	36.165611	89.564500	89.564500
307.578141	-23.058611	19.417778	31.553889	31.553889	19.417778	19.417778
307.954763	62.379611	2.912667	18.689611	18.689611	42.961833	42.961833
308.331352	75.972056	123.302889	86.894556	86.894556	14.077889	14.077889
308.707908	59.466944	-12.136111	49.758056	49.758056	82.525556	82.525556
309.084432	-8.738000	-9.951611	21.602278	21.602278	2.184500	2.184500
309.460922	8.009833	27.427611	25.000389	25.000389	-51.457111	-51.457111
309.837379	27.913056	65.535000	122.574722	122.574722	57.039722	57.039722
310.213804	64.321389	47.330833	66.748611	66.748611	89.807222	89.807222
310.590195	43.447278	77.428389	54.369778	54.369778	61.651444	61.651444
310.966554	77.428389	62.865056	59.224222	59.224222	93.205333	93.205333
311.342879	32.524778	27.670333	16.747833	16.747833	47.088111	47.088111
311.719172	66.748611	46.117222	64.321389	64.321389	23.058611	23.058611
312.095431	48.059000	57.767889	85.680944	85.680944	29.854833	29.854833
312.471657	13.592444	57.282444	62.136889	62.136889	51.214389	51.214389
312.847851	152.915000	166.264722	138.351667	138.351667	158.983056	158.983056
313.224011	9.466167	85.923667	51.942556	51.942556	70.146722	70.146722
313.600138	45.389056	17.476000	92.719889	92.719889	58.738778	58.738778
313.976232	40.777333	56.554278	48.059000	48.059000	34.709278	34.709278
314.352292	18.204167	61.894167	84.952778	84.952778	59.466944	59.466944
314.728320	98.787944	29.612111	59.952389	59.952389	79.370167	79.370167
315.104314	66.748611	64.321389	71.603056	71.603056	86.166389	86.166389
315.480275	68.933111	49.515333	-5.097167	-5.097167	26.456722	26.456722
315.856203	155.342222	129.856389	155.342222	155.342222	86.166389	86.166389
316.232098	27.670333	62.865056	53.156167	53.156167	84.710056	84.710056
316.607960	133.982667	34.466556	66.020444	66.020444	49.029889	49.029889
316.983788	81.069222	58.010611	24.029500	24.029500	70.146722	70.146722
317.359583	39.563722	17.718722	60.195111	60.195111	67.476778	67.476778
317.735345	127.671889	65.777722	68.204944	68.204944	88.836333	88.836333
318.111073	32.524778	45.874500	20.388667	20.388667	4.611722	4.611722
318.486769	27.427611	11.650667	-4.126278	-4.126278	-12.621556	-12.621556
318.862430	38.592833	32.524778	-14.806056	-14.806056	24.029500	24.029500
319.238059	48.301722	7.038944	47.088111	47.088111	-7.524389	-7.524389
319.613654	5.582611	16.505111	14.077889	14.077889	50.486222	50.486222
319.989216	22.815889	84.710056	32.524778	32.524778	41.020056	41.020056
320.364744	12.378833	12.378833	68.204944	68.204944	45.146333	45.146333
320.740239	66.263167	51.699833	65.049556	65.049556	68.690389	68.690389
321.115701	27.670333	15.534222	20.388667	20.388667	9.466167	9.466167
321.491129	-12.136111	30.340278	47.330833	47.330833	38.835556	38.835556
321.866524	61.408722	11.650667	45.631778	45.631778	58.981500	58.981500
322.241885	42.719111	14.806056	31.796611	31.796611	40.291889	40.291889
322.617213	38.592833	33.738389	91.991722	91.991722	71.360333	71.360333
322.992507	109.467722	120.390222	75.486611	75.486611	96.118000	96.118000
323.367768	116.506667	88.593611	103.156944	103.156944	135.924444	135.924444
323.742995	48.544444	25.485833	61.894167	61.894167	58.253333	58.253333
324.118189	38.835556	93.448056	69.175833	69.175833	70.389444	70.389444
324.493349	93.933500	64.806833	64.806833	64.806833	24.757667	24.757667
324.868475	74.030278	16.990556	95.875278	95.875278	111.652222	111.652222
325.243568	95.875278	30.340278	49.758056	49.758056	18.204167	18.204167
325.618628	-26.214000	29.612111	11.407944	11.407944	-3.155389	-3.155389
325.993654	117.720278	71.603056	92.234444	92.234444	9.708889	9.708889
326.368646	18.204167	57.039722	74.030278	74.030278	69.175833	69.175833
326.743604	-18.446889	15.534222	75.001167	75.001167	4.611722	4.611722
327.118529	38.107389	44.175444	46.602667	46.602667	56.311556	56.311556
327.493421	38.107389	33.252944	32.039333	32.039333	29.612111	29.612111
327.868278	45.631778	20.145944	29.854833	29.854833	26.214000	26.214000
328.243102	25.485833	64.321389	14.563333	14.563333	87.380000	87.380000
328.617892	0.000000	1.213611	8.495278	8.495278	53.398889	53.398889
328.992648	79.370167	63.593222	92.719889	92.719889	53.884333	53.884333
329.367371	100.244278	142.720667	117.234833	117.234833	62.622333	62.622333
329.742060	22.330444	46.602667	59.952389	59.952389	64.806833	64.806833
330.116715	83.253722	106.312333	86.894556	86.894556	102.671500	102.671500
330.491336	118.448444	146.361500	152.429556	152.429556	37.136500	37.136500
330.865924	66.263167	69.904000	46.845389	46.845389	44.418167	44.418167
331.240477	74.758444	86.894556	29.854833	29.854833	85.680944	85.680944
331.614997	87.865444	81.797389	23.544056	23.544056	80.583778	80.583778
331.989483	32.767500	75.243889	58.253333	58.253333	44.903611	44.903611
332.363935	24.029500	44.660889	50.728944	50.728944	34.952000	34.952000
332.738354	55.826111	8.495278	89.807222	89.807222	24.272222	24.272222
333.112738	48.787167	58.496056	120.390222	120.390222	64.564111	64.564111
333.487088	53.884333	68.447667	12.621556	12.621556	-10.437056	-10.437056
333.861405	95.147111	87.865444	68.447667	68.447667	51.457111	51.457111
334.235687	80.583778	97.574333	46.602667	46.602667	46.602667	46.602667
334.609936	21.845000	15.776944	37.621944	37.621944	48.544444	48.544444
334.984150	71.845778	24.514944	41.505500	41.505500	110.681333	110.681333
335.358331	55.583389	17.961444	4.611722	4.611722	37.379222	37.379222
335.732478	47.088111	59.224222	5.825333	5.825333	64.078667	64.078667
336.106590	17.961444	24.029500	72.573944	72.573944	108.982278	108.982278
336.480669	92.477167	122.817444	113.108556	113.108556	65.777722	65.777722
336.854713	63.350500	31.796611	120.390222	120.390222	-7.038944	-7.038944
337.228724	104.370556	40.049167	29.126667	29.126667	61.894167	61.894167
337.602700	125.730111	90.535389	125.730111	125.730111	80.826500	80.826500
337.976642	47.816278	79.370167	70.874889	70.874889	92.719889	92.719889
338.350550	61.651444	33.738389	41.020056	41.020056	47.088111	47.088111
338.724424	67.962222	40.049167	87.380000	87.380000	83.739167	83.739167
339.098264	30.583000	23.301333	92.477167	92.477167	39.078278	39.078278
339.472070	50.728944	66.505889	95.632556	95.632556	61.651444	61.651444
339.845842	104.127833	17.961444	91.991722	91.991722	85.923667	85.923667
340.219579	-4.611722	24.514944	28.155778	28.155778	39.078278	39.078278
340.593282	78.884722	-75.243889	32.767500	32.767500	7.281667	7.281667
340.966951	76.700222	77.913833	90.049944	90.049944	50.000778	50.000778
341.340586	51.214389	45.146333	79.127444	79.127444	-17.961444	-17.961444
341.714186	25.485833	-9.708889	48.544444	48.544444	32.767500	32.767500
342.087752	63.350500	81.554667	105.826889	105.826889	92.477167	92.477167
342.461284	55.097944	62.379611	50.243500	50.243500	92.719889	92.719889
342.834782	61.894167	-20.631389	41.262778	41.262778	59.466944	59.466944
343.208245	94.661667	82.525556	67.962222	67.962222	70.389444	70.389444
343.581674	-13.107000	46.359944	57.282444	57.282444	82.768278	82.768278
343.955069	12.378833	50.000778	39.078278	39.078278	68.204944	68.204944
344.328429	29.854833	-19.903222	-19.903222	-19.903222	-19.903222	-19.903222
344.701755	-7.038944	11.165222	34.223833	34.223833	19.660500	19.660500
345.075047	19.660500	56.068833	46.359944	46.359944	29.369389	29.369389
345.448304	44.660889	59.224222	78.642000	78.642000	32.524778	32.524778
345.821526	36.893778	24.757667	8.980722	8.980722	34.466556	34.466556
346.194715	86.409111	63.350500	45.146333	45.146333	46.359944	46.359944
346.567869	23.544056	55.097944	55.097944	55.097944	28.398500	28.398500
346.940988	2.427222	24.272222	27.913056	27.913056	26.699444	26.699444
347.314073	63.350500	20.874111	7.524389	7.524389	20.874111	20.874111
347.687123	125.487389	68.447667	38.107389	38.107389	84.224611	84.224611
348.060139	25.243111	53.156167	53.156167	53.156167	22.815889	22.815889
348.433121	38.350111	44.418167	86.894556	86.894556	68.690389	68.690389
348.806067	93.690778	83.981889	90.049944	90.049944	68.204944	68.204944
349.178980	56.554278	57.767889	32.282056	32.282056	-18.689611	-18.689611
349.551858	68.447667	135.196278	113.351278	113.351278	148.546000	148.546000
349.924701	38.107389	74.515722	108.496833	108.496833	125.487389	125.487389
350.297509	89.807222	24.272222	83.739167	83.739167	53.398889	53.398889
350.670283	78.884722	55.826111	29.126667	29.126667	40.049167	40.049167
351.043023	97.574333	73.302111	46.602667	46.602667	63.593222	63.593222
351.415727	5.339889	55.097944	22.330444	22.330444	-5.582611	-5.582611
351.788397	130.584556	119.662056	88.108167	88.108167	142.720667	142.720667
352.161033	36.893778	67.234056	93.933500	93.933500	90.292667	90.292667
352.533633	116.992111	68.447667	109.710444	109.710444	85.438222	85.438222
352.906199	23.786778	18.932333	14.077889	14.077889	63.835944	63.835944
353.278731	58.738778	63.593222	30.825722	30.825722	84.224611	84.224611
353.651227	33.738389	17.961444	82.282833	82.282833	60.437833	60.437833
354.023689	108.739556	51.699833	83.253722	83.253722	96.603444	96.603444
354.396116	24.272222	-27.913056	-1.213611	-1.213611	81.311944	81.311944
354.768508	43.690000	-10.922500	32.767500	32.767500	29.126667	29.126667
355.140866	89.079056	32.039333	100.001556	100.001556	57.525167	57.525167
355.513188	6.553500	18.689611	24.757667	24.757667	53.884333	53.884333
355.885476	36.893778	1.699056	36.893778	36.893778	7.767111	7.767111
356.257729	111.894944	58.496056	82.768278	82.768278	111.894944	111.894944
356.629947	29.854833	32.282056	92.962611	92.962611	31.068444	31.068444
357.002130	65.049556	37.136500	56.554278	56.554278	69.904000	69.904000
357.374279	47.573556	54.855222	62.136889	62.136889	62.136889	62.136889
357.746392	82.768278	103.399667	116.749389	116.749389	82.768278	82.768278
358.118471	50.000778	56.068833	24.514944	24.514944	48.787167	48.787167
358.490514	40.777333	88.108167	26.214000	26.214000	21.359556	21.359556
358.862523	97.817056	134.225389	73.544833	73.544833	52.913444	52.913444
359.234497	81.797389	84.224611	44.175444	44.175444	36.893778	36.893778
359.606436	65.535000	57.039722	2.427222	2.427222	-19.417778	-19.417778
359.978339	39.563722	40.777333	25.000389	25.000389	27.427611	27.427611
360.350208	124.273778	115.778500	55.097944	55.097944	56.311556	56.311556
360.722042	-30.583000	51.942556	20.388667	20.388667	14.320611	14.320611
361.093841	22.330444	-27.427611	6.553500	6.553500	30.825722	30.825722
361.465604	110.195889	85.923667	79.855611	79.855611	68.933111	68.933111
361.837333	25.485833	43.690000	105.584167	105.584167	57.039722	57.039722
362.209026	11.893389	54.369778	47.088111	47.088111	51.942556	51.942556
362.580685	44.418167	16.505111	16.505111	16.505111	43.204556	43.204556
362.952308	108.011389	101.943333	53.398889	53.398889	58.253333	58.253333
363.323896	73.302111	63.593222	41.748222	41.748222	-0.728167	-0.728167
363.695449	20.874111	43.932722	-21.602278	-21.602278	25.728556	25.728556
364.066967	75.729333	62.379611	129.128222	129.128222	91.506278	91.506278
364.438450	122.332000	51.942556	110.195889	110.195889	83.496444	83.496444
364.809897	83.253722	23.786778	45.631778	45.631778	6.796222	6.796222
365.181310	137.138056	126.215556	86.166389	86.166389	93.448056	93.448056
365.552687	54.127056	39.563722	11.650667	11.650667	46.845389	46.845389
365.924028	45.389056	123.060167	109.710444	109.710444	102.428778	102.428778
366.295335	86.894556	17.718722	29.854833	29.854833	6.796222	6.796222
366.666606	-25.243111	13.592444	2.669944	2.669944	45.146333	45.146333
367.037842	100.972444	80.341056	132.526333	132.526333	98.545222	98.545222
367.409043	29.854833	83.253722	3.155389	3.155389	-17.476000	-17.476000
367.780209	10.679778	10.679778	-1.456333	-1.456333	38.592833	38.592833
368.151339	21.359556	68.690389	44.418167	44.418167	40.777333	40.777333
368.522434	70.389444	87.380000	105.584167	105.584167	40.049167	40.049167
368.893493	23.301333	30.583000	-5.825333	-5.825333	28.155778	28.155778
369.264517	66.020444	67.234056	68.447667	68.447667	39.321000	39.321000
369.635506	12.864278	52.913444	68.690389	68.690389	67.476778	67.476778
370.006459	67.962222	52.185278	54.612500	54.612500	37.621944	37.621944
370.377377	50.971667	27.913056	49.758056	49.758056	25.485833	25.485833
370.748260	78.884722	83.739167	94.661667	94.661667	78.884722	78.884722
371.119107	97.574333	97.574333	83.011000	83.011000	100.001556	100.001556
371.489918	21.845000	10.922500	15.776944	15.776944	61.894167	61.894167
371.860694	-14.320611	12.378833	28.155778	28.155778	-32.524778	-32.524778
372.231435	88.350889	32.524778	42.233667	42.233667	16.747833	16.747833
372.602140	54.612500	49.758056	35.194722	35.194722	95.875278	95.875278
372.972809	80.583778	52.670722	38.107389	38.107389	42.961833	42.961833
373.343444	88.836333	35.437444	43.932722	43.932722	14.806056	14.806056
373.714042	43.447278	89.564500	96.846167	96.846167	124.759222	124.759222
374.084605	105.341444	84.710056	91.991722	91.991722	81.069222	81.069222
374.455132	44.418167	44.418167	12.864278	12.864278	51.699833	51.699833
374.825624	3.883556	75.486611	42.719111	42.719111	77.913833	77.913833
375.196080	42.719111	30.583000	41.505500	41.505500	12.378833	12.378833
375.566501	26.942167	30.583000	54.855222	54.855222	73.059389	73.059389
375.936885	13.349722	40.049167	48.544444	48.544444	29.126667	29.126667
376.307235	-6.553500	3.155389	49.272611	49.272611	-23.544056	-23.544056
376.677548	122.089278	118.448444	120.875667	120.875667	157.284000	157.284000
377.047826	55.340667	37.136500	8.009833	8.009833	34.709278	34.709278
377.418068	10.437056	67.476778	28.641222	28.641222	44.418167	44.418167
377.788275	64.564111	56.068833	91.263556	91.263556	81.554667	81.554667
378.158445	50.243500	73.302111	74.515722	74.515722	104.856000	104.856000
378.528580	23.301333	31.796611	40.291889	40.291889	45.146333	45.146333
378.898679	69.175833	37.621944	32.767500	32.767500	93.448056	93.448056
379.268743	89.807222	20.631389	64.321389	64.321389	23.058611	23.058611
379.638770	136.895333	95.632556	115.050333	115.050333	118.691167	118.691167
380.008762	44.660889	33.738389	31.311167	31.311167	70.146722	70.146722
380.378718	83.253722	63.835944	34.709278	34.709278	96.603444	96.603444
380.748638	39.563722	62.622333	44.418167	44.418167	80.826500	80.826500
381.118523	20.631389	-1.213611	35.194722	35.194722	26.699444	26.699444
381.488371	47.816278	46.602667	23.544056	23.544056	97.574333	97.574333
381.858184	8.980722	13.835167	8.980722	8.980722	-29.854833	-29.854833
382.227960	80.341056	35.437444	42.719111	42.719111	37.864667	37.864667
382.597701	68.447667	34.466556	17.476000	17.476000	45.389056	45.389056
382.967406	46.117222	65.535000	49.758056	49.758056	95.875278	95.875278
383.337075	54.127056	-15.048778	66.263167	66.263167	37.136500	37.136500
383.706708	38.835556	81.311944	16.990556	16.990556	30.340278	30.340278
384.076304	78.884722	104.370556	47.330833	47.330833	77.671111	77.671111
384.445865	34.709278	114.807611	31.068444	31.068444	50.486222	50.486222
384.815390	87.137278	73.787556	28.883944	28.883944	22.815889	22.815889
385.184879	-9.951611	32.524778	26.456722	26.456722	38.592833	38.592833
385.554332	-19.903222	28.641222	40.777333	40.777333	-16.262389	-16.262389
385.923749	153.643167	113.594000	101.457889	101.457889	96.603444	96.603444
386.293130	73.302111	104.856000	127.914611	127.914611	89.079056	89.079056
386.662474	58.496056	81.554667	45.146333	45.146333	54.855222	54.855222
387.031783	32.767500	58.253333	50.971667	50.971667	54.612500	54.612500
387.401055	46.602667	-15.291500	51.457111	51.457111	-4.369000	-4.369000
387.770292	77.185667	75.972056	72.331222	72.331222	79.612889	79.612889
388.139492	19.903222	16.262389	74.515722	74.515722	50.243500	50.243500
388.508656	47.816278	-0.728167	33.252944	33.252944	102.428778	102.428778
388.877784	15.776944	42.476389	30.340278	30.340278	58.253333	58.253333
389.246876	37.379222	-5.097167	-7.524389	-7.524389	25.243111	25.243111
389.615931	34.709278	25.000389	38.350111	38.350111	33.495667	33.495667
389.984950	21.602278	37.379222	25.243111	25.243111	30.097556	30.097556
390.353933	91.020833	20.631389	60.680556	60.680556	27.913056	27.913056
390.722880	94.661667	69.175833	122.574722	122.574722	78.884722	78.884722
391.091791	35.437444	-21.602278	6.310778	6.310778	52.428000	52.428000
391.460665	55.340667	84.467333	45.631778	45.631778	65.049556	65.049556
391.829503	126.215556	132.283611	112.865833	112.865833	100.729722	100.729722
392.198304	67.962222	55.826111	32.767500	32.767500	71.603056	71.603056
392.567070	57.767889	17.718722	-10.194333	-10.194333	63.835944	63.835944
392.935799	19.417778	47.330833	40.049167	40.049167	24.272222	24.272222
393.304491	64.564111	47.573556	51.214389	51.214389	69.418556	69.418556
393.673148	110.681333	134.953556	80.341056	80.341056	37.864667	37.864667
394.041768	31.796611	64.564111	19.660500	19.660500	47.573556	47.573556
394.410351	81.069222	98.059778	122.332000	122.332000	94.418944	94.418944
394.778898	69.418556	132.526333	81.554667	81.554667	107.040500	107.040500
395.147409	108.254111	165.293833	138.594389	138.594389	176.216333	176.216333
395.515883	72.088500	55.097944	87.865444	87.865444	97.574333	97.574333
395.884321	10.922500	21.845000	53.398889	53.398889	57.039722	57.039722
396.252722	148.060556	86.166389	78.884722	78.884722	93.448056	93.448056
396.621087	24.514944	41.505500	99.758833	99.758833	65.777722	65.777722
396.989415	77.185667	37.136500	62.622333	62.622333	27.427611	27.427611
397.357707	129.613667	93.205333	82.282833	82.282833	127.186444	127.186444
397.725962	78.884722	-2.427222	38.835556	38.835556	123.788333	123.788333
398.094181	33.252944	-1.941778	35.680167	35.680167	49.029889	49.029889
398.462363	46.602667	-23.786778	17.476000	17.476000	10.194333	10.194333
398.830508	23.786778	16.505111	-12.621556	-12.621556	3.155389	3.155389
399.198617	63.593222	109.710444	96.360722	96.360722	62.379611	62.379611
399.566689	74.273000	59.709667	54.855222	54.855222	0.242722	0.242722
399.934725	72.573944	44.660889	59.224222	59.224222	30.097556	30.097556
400.302724	16.747833	-16.019667	55.583389	55.583389	-11.165222	-11.165222
400.670687	67.476778	60.195111	37.136500	37.136500	18.932333	18.932333
401.038612	66.991333	82.768278	46.359944	46.359944	48.787167	48.787167
401.406501	76.942944	72.088500	63.593222	63.593222	45.389056	45.389056
401.774354	84.710056	10.679778	43.447278	43.447278	41.020056	41.020056
402.142169	51.942556	45.874500	53.156167	53.156167	54.369778	54.369778
402.509948	72.331222	68.690389	109.953167	109.953167	72.331222	72.331222
402.877690	93.448056	99.516111	20.631389	20.631389	128.642778	128.642778
403.245396	69.661278	50.243500	50.243500	50.243500	6.553500	6.553500
403.613064	43.447278	33.738389	36.165611	36.165611	73.787556	73.787556
403.980696	21.359556	46.845389	-15.048778	-15.048778	-12.621556	-12.621556
404.348291	27.427611	111.166778	83.253722	83.253722	91.749000	91.749000
404.715849	17.233278	70.632167	59.709667	59.709667	42.719111	42.719111
405.083370	8.495278	32.767500	-27.913056	-27.913056	7.281667	7.281667
405.450855	91.506278	87.865444	24.757667	24.757667	25.971278	25.971278
405.818303	101.943333	78.884722	87.380000	87.380000	82.525556	82.525556
406.185713	-7.767111	21.359556	56.554278	56.554278	-17.476000	-17.476000
406.553087	89.807222	160.196667	54.612500	54.612500	65.535000	65.535000
406.920424	118.933889	72.816667	75.243889	75.243889	83.739167	83.739167
407.287724	64.321389	32.767500	-13.349722	-13.349722	-18.204167	-18.204167
407.654987	85.195500	115.535778	69.418556	69.418556	16.019667	16.019667
408.022213	98.059778	71.360333	159.953944	159.953944	44.660889	44.660889
408.389402	37.864667	76.700222	24.514944	24.514944	17.233278	17.233278
408.756554	74.273000	70.632167	85.195500	85.195500	79.127444	79.127444
409.123669	26.699444	49.758056	80.098333	80.098333	52.185278	52.185278
409.490748	12.864278	60.195111	27.427611	27.427611	31.068444	31.068444
409.857789	55.583389	75.001167	68.933111	68.933111	101.700611	101.700611
410.224793	39.563722	22.573167	23.786778	23.786778	18.932333	18.932333
410.591760	44.660889	95.632556	38.592833	38.592833	79.855611	79.855611
410.958689	59.709667	57.282444	77.913833	77.913833	50.000778	50.000778
411.325582	83.739167	44.903611	49.758056	49.758056	91.020833	91.020833
411.692438	12.621556	17.476000	52.670722	52.670722	53.884333	53.884333
412.059256	2.912667	68.447667	40.534611	40.534611	124.273778	124.273778
412.426038	49.029889	78.156556	72.088500	72.088500	56.311556	56.311556
412.792782	27.913056	77.671111	65.535000	65.535000	60.680556	60.680556
413.159489	79.612889	101.457889	187.624278	187.624278	159.711222	159.711222
413.526159	10.679778	70.146722	100.487000	100.487000	36.165611	36.165611
413.892792	65.777722	28.155778	31.796611	31.796611	-4.611722	-4.611722
414.259387	26.699444	16.990556	19.417778	19.417778	15.776944	15.776944
414.625945	-16.505111	52.670722	21.116833	21.116833	0.485444	0.485444
414.992466	45.146333	64.564111	77.913833	77.913833	57.282444	57.282444
415.358950	67.234056	108.496833	81.797389	81.797389	57.525167	57.525167
415.725396	29.126667	43.690000	59.466944	59.466944	53.398889	53.398889
416.091806	25.728556	17.233278	69.418556	69.418556	58.496056	58.496056
416.458177	55.340667	52.913444	21.359556	21.359556	34.709278	34.709278
416.824512	95.389833	69.904000	33.495667	33.495667	78.399278	78.399278
417.190809	65.292278	19.175056	-3.883556	-3.883556	39.806444	39.806444
417.557069	64.564111	59.709667	47.573556	47.573556	50.000778	50.000778
417.923291	22.573167	22.573167	8.009833	8.009833	-12.621556	-12.621556
418.289476	40.534611	90.292667	79.370167	79.370167	36.893778	36.893778
418.655624	36.165611	15.534222	49.515333	49.515333	48.301722	48.301722
419.021734	53.884333	72.088500	59.952389	59.952389	86.651833	86.651833
419.387807	66.263167	27.427611	8.009833	8.009833	101.457889	101.457889
419.753843	91.020833	106.797778	109.225000	109.225000	64.321389	64.321389
420.119841	63.107778	74.030278	35.194722	35.194722	-6.068056	-6.068056
420.485801	35.680167	22.330444	25.971278	25.971278	2.912667	2.912667
420.851724	86.166389	38.835556	69.175833	69.175833	59.466944	59.466944
421.217609	-28.155778	9.466167	22.815889	22.815889	30.097556	30.097556
421.583457	76.942944	24.757667	45.389056	45.389056	34.466556	34.466556
421.949268	31.553889	54.612500	26.699444	26.699444	14.563333	14.563333
422.315041	61.651444	37.379222	72.573944	72.573944	27.670333	27.670333
422.680776	72.331222	62.622333	61.408722	61.408722	32.282056	32.282056
423.046474	113.108556	96.118000	80.341056	80.341056	104.613278	104.613278
423.412134	58.496056	8.738000	42.719111	42.719111	75.486611	75.486611
423.777756	1.699056	-15.291500	35.680167	35.680167	34.466556	34.466556
424.143341	52.428000	23.301333	93.690778	93.690778	29.369389	29.369389
424.508888	42.961833	-12.864278	67.234056	67.234056	17.476000	17.476000
424.874398	29.612111	-16.505111	46.602667	46.602667	38.107389	38.107389
425.239870	22.815889	64.078667	43.447278	43.447278	9.466167	9.466167
425.605304	18.204167	4.854444	93.448056	93.448056	82.525556	82.525556
425.970701	27.427611	25.000389	61.408722	61.408722	21.359556	21.359556
426.336059	33.981111	58.253333	42.476389	42.476389	13.349722	13.349722
426.701381	4.369000	84.467333	61.408722	61.408722	23.786778	23.786778
427.066664	4.854444	41.262778	2.427222	2.427222	10.922500	10.922500
427.431909	29.126667	65.535000	50.971667	50.971667	8.495278	8.495278
427.797117	82.040111	-1.699056	32.282056	32.282056	33.495667	33.495667
428.162287	68.690389	52.913444	77.185667	77.185667	39.563722	39.563722
428.527419	13.592444	76.700222	31.796611	31.796611	36.651056	36.651056
428.892514	23.058611	52.185278	42.476389	42.476389	52.185278	52.185278
429.257570	124.759222	55.583389	47.088111	47.088111	76.214778	76.214778
429.622589	55.826111	27.913056	57.039722	57.039722	104.370556	104.370556
429.987570	16.990556	-4.854444	-6.068056	-6.068056	14.563333	14.563333
430.352513	-1.213611	19.417778	65.535000	65.535000	38.835556	38.835556
430.717418	91.263556	108.254111	79.127444	79.127444	109.467722	109.467722
431.082285	38.350111	45.631778	28.641222	28.641222	45.631778	45.631778
431.447114	48.787167	41.505500	30.583000	30.583000	-0.970889	-0.970889
431.811905	4.854444	40.049167	53.398889	53.398889	-1.213611	-1.213611
432.176659	32.039333	63.593222	101.215167	101.215167	70.874889	70.874889
432.541374	59.466944	82.525556	117.720278	117.720278	105.584167	105.584167
432.906051	57.525167	79.370167	79.370167	79.370167	13.835167	13.835167
433.270691	29.612111	61.166000	16.262389	16.262389	32.039333	32.039333
433.635292	94.661667	61.894167	77.671111	77.671111	50.971667	50.971667
433.999855	62.622333	50.486222	90.535389	90.535389	57.767889	57.767889
434.364380	119.176611	46.359944	70.632167	70.632167	94.904389	94.904389
434.728867	59.952389	46.602667	33.252944	33.252944	59.952389	59.952389
435.093317	81.311944	87.380000	91.020833	91.020833	145.633333	145.633333
435.457728	55.826111	132.283611	72.816667	72.816667	87.380000	87.380000
435.822100	47.573556	69.418556	73.059389	73.059389	31.796611	31.796611
436.186435	55.826111	-2.427222	89.807222	89.807222	32.767500	32.767500
436.550732	112.380389	96.603444	92.962611	92.962611	97.817056	97.817056
436.914990	88.836333	58.496056	68.204944	68.204944	51.214389	51.214389
437.279210	48.301722	79.855611	82.282833	82.282833	78.642000	78.642000
437.643392	25.485833	87.380000	25.485833	25.485833	44.903611	44.903611
438.007536	45.146333	-0.970889	41.505500	41.505500	-21.602278	-21.602278
438.371642	74.273000	98.545222	60.923278	60.923278	83.981889	83.981889
438.735709	30.340278	49.758056	40.049167	40.049167	55.826111	55.826111
439.099739	79.370167	68.447667	102.428778	102.428778	57.525167	57.525167
439.463730	141.264333	86.651833	113.351278	113.351278	146.118778	146.118778
439.827682	62.622333	83.253722	58.981500	58.981500	43.204556	43.204556
440.191597	44.903611	95.875278	36.408333	36.408333	47.330833	47.330833
440.555473	111.894944	77.913833	56.068833	56.068833	69.418556	69.418556
440.919310	17.718722	66.263167	37.136500	37.136500	80.826500	80.826500
441.283110	86.166389	84.952778	41.262778	41.262778	87.380000	87.380000
441.646871	89.321778	68.690389	109.953167	109.953167	80.826500	80.826500
442.010593	85.438222	59.952389	78.156556	78.156556	28.398500	28.398500
442.374278	99.273389	100.487000	96.846167	96.846167	65.292278	65.292278
442.737924	96.118000	80.341056	93.690778	93.690778	53.641611	53.641611
443.101531	52.913444	94.176222	96.603444	96.603444	94.176222	94.176222
443.465100	62.865056	89.564500	45.874500	45.874500	22.815889	22.815889
443.828631	39.321000	78.156556	8.980722	8.980722	76.942944	76.942944
444.192123	4.126278	6.553500	-10.437056	-10.437056	-1.941778	-1.941778
444.555577	14.563333	29.126667	-15.776944	-15.776944	15.776944	15.776944
444.918992	52.185278	103.156944	76.457500	76.457500	77.671111	77.671111
445.282368	52.185278	49.758056	36.408333	36.408333	131.070000	131.070000
445.645707	35.680167	-1.941778	10.194333	10.194333	-1.941778	-1.941778
446.009006	39.563722	22.573167	18.932333	18.932333	15.291500	15.291500
446.372267	117.963000	120.390222	57.282444	57.282444	41.505500	41.505500
446.735490	18.932333	34.709278	50.486222	50.486222	33.495667	33.495667
447.098674	22.330444	22.330444	23.544056	23.544056	90.292667	90.292667
447.461819	60.437833	67.719500	48.301722	48.301722	96.846167	96.846167
447.824926	84.224611	53.884333	4.126278	4.126278	8.980722	8.980722
448.187994	-6.553500	67.476778	-12.621556	-12.621556	31.068444	31.068444
448.551023	75.001167	89.564500	67.719500	67.719500	55.583389	55.583389
448.914014	101.943333	87.380000	81.311944	81.311944	89.807222	89.807222
449.276966	32.524778	28.883944	42.233667	42.233667	45.874500	45.874500
449.639880	89.564500	81.069222	95.632556	95.632556	59.224222	59.224222
450.002754	62.136889	69.418556	85.195500	85.195500	75.486611	75.486611
450.365590	30.825722	27.184889	22.330444	22.330444	27.184889	27.184889
450.728388	-3.883556	33.738389	67.719500	67.719500	37.379222	37.379222
451.091146	25.243111	-1.456333	53.156167	53.156167	-36.651056	-36.651056
451.453866	35.194722	86.166389	76.457500	76.457500	95.875278	95.875278
451.816547	61.651444	111.409500	106.555056	106.555056	91.991722	91.991722
452.179189	47.330833	31.553889	32.767500	32.767500	12.136111	12.136111
452.541793	127.671889	45.146333	88.836333	88.836333	121.603833	121.603833
452.904357	33.981111	63.107778	25.485833	25.485833	84.952778	84.952778
453.266883	76.942944	69.661278	90.292667	90.292667	59.952389	59.952389
453.629370	19.660500	-16.747833	59.709667	59.709667	50.000778	50.000778
453.991818	34.223833	12.378833	-13.107000	-13.107000	68.204944	68.204944
454.354227	49.758056	29.126667	83.739167	83.739167	74.030278	74.030278
454.716597	77.185667	105.098722	38.350111	38.350111	122.089278	122.089278
455.078929	77.671111	101.943333	103.156944	103.156944	100.729722	100.729722
455.441221	123.060167	85.438222	100.001556	100.001556	90.292667	90.292667
455.803475	114.564889	141.264333	141.264333	141.264333	109.710444	109.710444
456.165689	33.738389	58.010611	-14.806056	-14.806056	85.923667	85.923667
456.527865	56.554278	69.904000	35.922889	35.922889	51.699833	51.699833
456.890001	93.690778	94.904389	39.078278	39.078278	115.535778	115.535778
457.252099	104.127833	65.292278	60.437833	60.437833	75.001167	75.001167
457.614157	50.000778	13.592444	13.592444	13.592444	22.087722	22.087722
457.976177	109.467722	122.817444	98.545222	98.545222	73.059389	73.059389
458.338157	71.360333	65.292278	77.428389	77.428389	83.496444	83.496444
458.700099	68.204944	99.758833	91.263556	91.263556	40.291889	40.291889
459.062001	110.195889	119.904778	142.963389	142.963389	99.273389	99.273389
459.423864	189.566056	182.284389	175.002722	175.002722	183.498000	183.498000
459.785688	117.477556	88.350889	141.749778	141.749778	118.691167	118.691167
460.147473	67.234056	-26.214000	51.457111	51.457111	7.767111	7.767111
460.509219	125.244667	90.049944	87.622722	87.622722	71.845778	71.845778
460.870926	2.184500	-6.310778	0.970889	0.970889	24.029500	24.029500
461.232593	55.340667	23.786778	-2.912667	-2.912667	11.650667	11.650667
461.594221	86.894556	83.253722	31.068444	31.068444	78.399278	78.399278
461.955810	34.709278	69.904000	58.981500	58.981500	67.476778	67.476778
462.317360	34.709278	34.709278	38.350111	38.350111	38.350111	38.350111
462.678871	96.846167	136.895333	91.991722	91.991722	107.768667	107.768667
463.040342	83.011000	52.670722	86.651833	86.651833	56.311556	56.311556
463.401775	1.213611	23.058611	20.631389	20.631389	18.204167	18.204167
463.763167	7.524389	31.796611	62.136889	62.136889	-14.320611	-14.320611
464.124521	14.806056	36.651056	45.146333	45.146333	-22.815889	-22.815889
464.485835	94.661667	146.846944	78.884722	78.884722	111.652222	111.652222
464.847110	74.515722	58.738778	126.701000	126.701000	81.797389	81.797389
465.208346	38.107389	17.476000	8.980722	8.980722	21.116833	21.116833
465.569542	38.350111	49.272611	85.680944	85.680944	35.922889	35.922889
465.930699	93.205333	31.311167	87.137278	87.137278	112.623111	112.623111
466.291817	51.214389	69.418556	137.380778	137.380778	58.496056	58.496056
466.652895	28.883944	55.583389	70.146722	70.146722	31.311167	31.311167
467.013933	80.826500	51.699833	68.690389	68.690389	45.631778	45.631778
467.374933	64.321389	88.593611	53.398889	53.398889	98.302500	98.302500
467.735892	88.350889	64.078667	30.097556	30.097556	44.660889	44.660889
468.096813	128.400056	157.526722	94.418944	94.418944	125.972833	125.972833
468.457694	30.097556	77.428389	38.592833	38.592833	34.952000	34.952000
468.818535	137.866222	108.739556	92.962611	92.962611	68.690389	68.690389
469.179337	23.301333	75.486611	58.496056	58.496056	31.796611	31.796611
469.540099	157.284000	89.321778	99.030667	99.030667	108.739556	108.739556
469.900822	54.369778	11.893389	36.165611	36.165611	89.564500	89.564500
470.261506	130.341833	84.224611	129.128222	129.128222	101.215167	101.215167
470.622149	122.089278	102.671500	84.467333	84.467333	22.573167	22.573167
470.982753	89.807222	33.981111	18.204167	18.204167	41.262778	41.262778
471.343318	101.943333	43.690000	125.001944	125.001944	129.856389	129.856389
471.703843	61.166000	-17.718722	-12.864278	-12.864278	-39.563722	-39.563722
472.064328	114.322167	110.681333	99.758833	99.758833	93.690778	93.690778
472.424774	60.680556	-3.640833	53.398889	53.398889	57.039722	57.039722
472.785180	46.117222	53.398889	88.593611	88.593611	63.107778	63.107778
473.145546	45.874500	70.146722	39.806444	39.806444	15.534222	15.534222
473.505873	-2.669944	45.874500	50.728944	50.728944	102.914222	102.914222
473.866160	1.456333	63.350500	-2.184500	-2.184500	-30.097556	-30.097556
474.226407	123.788333	67.962222	93.448056	93.448056	66.748611	66.748611
474.586615	58.981500	80.826500	99.030667	99.030667	86.894556	86.894556
474.946783	64.806833	30.825722	84.224611	84.224611	46.602667	46.602667
475.306911	65.292278	78.642000	81.069222	81.069222	76.214778	76.214778
475.666999	66.020444	67.234056	50.243500	50.243500	-8.009833	-8.009833
476.027047	0.242722	48.787167	50.000778	50.000778	-34.952000	-34.952000
476.387056	38.350111	57.767889	39.563722	39.563722	90.535389	90.535389
476.747025	40.291889	60.923278	91.263556	91.263556	62.136889	62.136889
477.106954	40.534611	28.398500	72.088500	72.088500	33.252944	33.252944
477.466843	85.195500	115.535778	130.099111	130.099111	87.622722	87.622722
477.826692	151.701389	109.225000	173.546389	173.546389	169.905556	169.905556
478.186502	123.302889	84.467333	107.525944	107.525944	68.690389	68.690389
478.546271	83.981889	43.932722	54.855222	54.855222	17.233278	17.233278
478.906001	84.710056	67.719500	13.107000	13.107000	68.933111	68.933111
479.265690	52.185278	63.107778	71.603056	71.603056	70.389444	70.389444
479.625340	118.205722	84.224611	108.496833	108.496833	109.710444	109.710444
479.984950	35.922889	1.941778	38.350111	38.350111	-5.339889	-5.339889
480.344519	93.205333	68.933111	65.292278	65.292278	54.369778	54.369778
480.704049	41.990944	73.544833	79.612889	79.612889	67.476778	67.476778
481.063539	62.622333	51.699833	46.845389	46.845389	5.582611	5.582611
481.422989	98.302500	150.487778	57.039722	57.039722	93.448056	93.448056
481.782398	120.875667	60.195111	88.108167	88.108167	125.730111	125.730111
482.141768	119.904778	61.651444	62.865056	62.865056	111.409500	111.409500
482.501098	41.262778	27.913056	44.903611	44.903611	8.495278	8.495278
482.860387	57.767889	65.049556	34.709278	34.709278	52.913444	52.913444
483.219637	70.874889	101.215167	79.370167	79.370167	97.574333	97.574333
483.578846	30.583000	24.514944	5.097167	5.097167	53.641611	53.641611
483.938015	63.593222	67.234056	84.224611	84.224611	78.156556	78.156556
484.297144	61.894167	27.913056	-12.136111	-12.136111	30.340278	30.340278
484.656233	28.155778	1.456333	50.000778	50.000778	23.301333	23.301333
485.015282	4.854444	-10.922500	-2.427222	-2.427222	12.136111	12.136111
485.374291	116.506667	88.593611	74.030278	74.030278	98.302500	98.302500
485.733259	81.069222	81.069222	44.660889	44.660889	139.322556	139.322556
486.092187	45.631778	74.758444	124.516500	124.516500	77.185667	77.185667
486.451075	106.069611	121.846556	86.651833	86.651833	109.710444	109.710444
486.809923	79.370167	51.457111	85.438222	85.438222	61.166000	61.166000
487.168730	8.495278	42.476389	88.593611	88.593611	33.981111	33.981111
487.527497	110.195889	122.332000	144.177000	144.177000	170.876444	170.876444
487.886224	27.913056	67.962222	64.321389	64.321389	52.185278	52.185278
488.244910	34.952000	71.360333	75.001167	75.001167	14.320611	14.320611
488.603557	119.662056	46.845389	119.662056	119.662056	80.826500	80.826500
488.962162	73.544833	48.059000	38.350111	38.350111	52.913444	52.913444
489.320728	11.165222	18.446889	45.146333	45.146333	19.660500	19.660500
489.679253	129.613667	75.001167	134.468111	134.468111	129.613667	129.613667
490.037738	58.496056	50.000778	90.049944	90.049944	99.758833	99.758833
490.396182	130.341833	109.710444	92.719889	92.719889	144.905167	144.905167
490.754586	107.040500	139.808000	80.341056	80.341056	88.836333	88.836333
491.112950	33.495667	90.535389	100.244278	100.244278	61.408722	61.408722
491.471273	80.583778	74.515722	107.283222	107.283222	32.039333	32.039333
491.829555	44.660889	56.797000	78.642000	78.642000	71.360333	71.360333
492.187798	87.137278	31.311167	54.369778	54.369778	76.214778	76.214778
492.545999	70.632167	133.739944	40.291889	40.291889	58.496056	58.496056
492.904160	94.418944	71.360333	95.632556	95.632556	128.400056	128.400056
493.262281	39.078278	31.796611	8.738000	8.738000	-0.970889	-0.970889
493.620361	116.749389	108.254111	63.350500	63.350500	108.254111	108.254111
493.978401	74.758444	-8.980722	61.408722	61.408722	37.136500	37.136500
494.336400	111.652222	105.584167	112.865833	112.865833	92.234444	92.234444
494.694358	91.263556	65.777722	37.864667	37.864667	62.136889	62.136889
495.052276	13.592444	34.223833	29.369389	29.369389	43.932722	43.932722
495.410153	52.670722	6.553500	68.447667	68.447667	53.884333	53.884333
495.767990	69.175833	61.894167	93.448056	93.448056	53.398889	53.398889
496.125786	80.826500	85.680944	52.913444	52.913444	60.195111	60.195111
496.483541	107.525944	90.535389	79.612889	79.612889	116.021222	116.021222
496.841255	98.059778	54.369778	77.428389	77.428389	83.496444	83.496444
497.198929	72.088500	74.515722	92.719889	92.719889	80.583778	80.583778
497.556563	135.924444	111.652222	156.555833	156.555833	99.516111	99.516111
497.914155	4.611722	94.418944	38.592833	38.592833	51.942556	51.942556
498.271707	81.554667	120.390222	153.157722	153.157722	85.195500	85.195500
498.629218	65.777722	-7.038944	23.301333	23.301333	28.155778	28.155778
498.986688	127.186444	136.895333	100.487000	100.487000	125.972833	125.972833
499.344118	105.584167	50.971667	87.380000	87.380000	52.185278	52.185278
499.701506	18.446889	16.019667	64.564111	64.564111	24.514944	24.514944
500.058854	76.214778	82.282833	37.379222	37.379222	51.942556	51.942556
500.416161	104.613278	113.108556	171.361889	171.361889	98.545222	98.545222
500.773428	128.885500	96.118000	100.972444	100.972444	93.690778	93.690778
501.130653	20.388667	13.107000	19.175056	19.175056	-9.951611	-9.951611
501.487837	105.341444	37.379222	75.001167	75.001167	43.447278	43.447278
501.844981	96.603444	79.612889	85.680944	85.680944	80.826500	80.826500
502.202084	6.796222	-2.912667	32.282056	32.282056	18.932333	18.932333
502.559146	134.710833	82.525556	92.234444	92.234444	71.603056	71.603056
502.916167	132.526333	62.136889	122.817444	122.817444	54.855222	54.855222
503.273146	66.263167	120.875667	28.641222	28.641222	67.476778	67.476778
503.630085	37.621944	58.253333	46.117222	46.117222	2.427222	2.427222
503.986984	59.952389	133.982667	79.370167	79.370167	47.816278	47.816278
504.343841	68.447667	34.466556	75.729333	75.729333	45.389056	45.389056
504.700657	144.177000	122.332000	118.691167	118.691167	100.487000	100.487000
505.057432	110.195889	93.205333	200.003111	200.003111	127.186444	127.186444
505.414166	22.087722	1.456333	3.883556	3.883556	31.796611	31.796611
505.770858	80.826500	90.535389	86.894556	86.894556	57.767889	57.767889
506.127510	91.749000	73.544833	52.913444	52.913444	95.389833	95.389833
506.484121	63.350500	64.564111	35.437444	35.437444	77.913833	77.913833
506.840691	15.776944	69.175833	59.466944	59.466944	36.408333	36.408333
507.197219	28.641222	84.467333	56.554278	56.554278	-1.699056	-1.699056
507.553707	33.252944	-0.728167	28.398500	28.398500	75.729333	75.729333
507.910153	13.592444	77.913833	51.214389	51.214389	53.641611	53.641611
508.266558	34.223833	74.273000	35.437444	35.437444	71.845778	71.845778
508.622922	43.690000	4.854444	59.466944	59.466944	-16.990556	-16.990556
508.979245	62.865056	67.719500	75.001167	75.001167	62.865056	62.865056
509.335527	43.204556	80.826500	80.826500	80.826500	29.854833	29.854833
509.691767	48.787167	-16.747833	86.409111	86.409111	74.273000	74.273000
510.047966	-25.485833	-15.776944	-20.631389	-20.631389	15.776944	15.776944
510.404124	52.913444	73.544833	54.127056	54.127056	44.418167	44.418167
510.760241	68.933111	82.282833	88.350889	88.350889	13.107000	13.107000
511.116316	-8.252556	42.719111	79.127444	79.127444	56.068833	56.068833
511.472350	82.768278	76.700222	24.514944	24.514944	96.118000	96.118000
511.828343	110.681333	47.573556	75.486611	75.486611	57.282444	57.282444
512.184295	89.321778	112.380389	52.913444	52.913444	11.650667	11.650667
512.540205	80.583778	22.330444	35.680167	35.680167	25.971278	25.971278
512.896073	107.040500	77.913833	62.136889	62.136889	79.127444	79.127444
513.251901	60.923278	81.554667	99.758833	99.758833	40.291889	40.291889
513.607687	31.068444	99.030667	21.359556	21.359556	69.904000	69.904000
513.963431	83.981889	35.437444	40.291889	40.291889	63.350500	63.350500
514.319135	75.486611	76.700222	83.981889	83.981889	63.350500	63.350500
514.674796	3.640833	69.175833	25.485833	25.485833	47.330833	47.330833
515.030417	28.155778	53.641611	105.826889	105.826889	56.068833	56.068833
515.385996	102.914222	89.564500	96.846167	96.846167	65.292278	65.292278
515.741533	109.953167	91.749000	72.331222	72.331222	86.894556	86.894556
516.097029	34.952000	33.738389	61.651444	61.651444	119.904778	119.904778
516.452483	51.699833	100.244278	45.631778	45.631778	65.049556	65.049556
516.807896	108.254111	63.350500	113.108556	113.108556	105.826889	105.826889
517.163268	68.690389	78.399278	122.089278	122.089278	92.962611	92.962611
517.518597	35.194722	60.680556	48.544444	48.544444	77.671111	77.671111
517.873886	68.933111	28.883944	58.010611	58.010611	8.252556	8.252556
518.229132	43.690000	112.865833	64.321389	64.321389	110.438611	110.438611
518.584337	66.263167	107.525944	100.244278	100.244278	52.913444	52.913444
518.939501	49.272611	73.544833	78.399278	78.399278	86.894556	86.894556
519.294623	54.855222	120.390222	82.768278	82.768278	73.059389	73.059389
519.649703	35.680167	96.360722	78.156556	78.156556	47.816278	47.816278
520.004742	68.933111	70.146722	27.670333	27.670333	71.360333	71.360333
520.359738	77.185667	95.389833	68.690389	68.690389	33.495667	33.495667
520.714694	100.729722	32.767500	98.302500	98.302500	31.553889	31.553889
521.069607	52.428000	46.359944	97.331611	97.331611	104.613278	104.613278
521.424479	68.204944	99.758833	104.613278	104.613278	137.380778	137.380778
521.779309	136.409889	144.905167	91.506278	91.506278	137.623500	137.623500
522.134097	116.263944	70.146722	107.768667	107.768667	36.165611	36.165611
522.488844	56.068833	102.186056	103.399667	103.399667	108.254111	108.254111
522.843549	77.671111	57.039722	75.243889	75.243889	60.680556	60.680556
523.198211	28.641222	114.807611	107.525944	107.525944	80.826500	80.826500
523.552833	47.088111	32.524778	30.097556	30.097556	66.505889	66.505889
523.907412	177.672667	152.186833	141.264333	141.264333	131.555444	131.555444
524.261949	28.883944	56.797000	84.710056	84.710056	5.825333	5.825333
524.616445	-18.932333	7.767111	42.961833	42.961833	6.553500	6.553500
524.970899	55.340667	89.321778	102.671500	102.671500	40.777333	40.777333
525.325311	189.566056	172.575500	144.662444	144.662444	136.167167	136.167167
525.679681	30.825722	90.292667	96.360722	96.360722	16.262389	16.262389
526.034009	119.904778	87.137278	82.282833	82.282833	66.505889	66.505889
526.388295	58.496056	128.885500	66.991333	66.991333	119.176611	119.176611
526.742539	43.447278	37.379222	53.156167	53.156167	10.679778	10.679778
527.096742	127.186444	163.594778	140.536167	140.536167	139.322556	139.322556
527.450902	36.651056	122.817444	126.458278	126.458278	127.671889	127.671889
527.805020	48.059000	14.077889	28.641222	28.641222	78.399278	78.399278
528.159096	142.235222	53.641611	109.467722	109.467722	98.545222	98.545222
528.513131	-4.126278	100.244278	91.749000	91.749000	21.359556	21.359556
528.867123	46.359944	65.777722	34.223833	34.223833	85.195500	85.195500
529.221073	32.524778	42.233667	55.583389	55.583389	37.379222	37.379222
529.574981	137.623500	118.205722	108.496833	108.496833	101.215167	101.215167
529.928847	67.719500	68.933111	107.768667	107.768667	110.195889	110.195889
530.282671	111.652222	91.020833	50.971667	50.971667	99.516111	99.516111
530.636453	142.235222	121.603833	127.671889	127.671889	109.467722	109.467722
530.990193	136.895333	130.827278	129.613667	129.613667	200.003111	200.003111
531.343891	52.428000	85.195500	52.428000	52.428000	115.535778	115.535778
531.697546	138.837111	123.060167	147.332389	147.332389	142.477944	142.477944
532.051159	181.556222	151.215944	185.197056	185.197056	171.847333	171.847333
532.404730	71.845778	51.214389	37.864667	37.864667	57.282444	57.282444
532.758259	61.408722	82.040111	82.040111	82.040111	33.495667	33.495667
533.111746	121.361111	133.497222	106.797778	106.797778	92.234444	92.234444
533.465190	73.059389	120.390222	131.312722	131.312722	90.049944	90.049944
533.818593	97.817056	94.176222	84.467333	84.467333	78.399278	78.399278
534.171952	111.652222	48.544444	82.525556	82.525556	84.952778	84.952778
534.525270	151.215944	9.223444	130.584556	130.584556	116.021222	116.021222
534.878545	52.670722	124.273778	102.428778	102.428778	104.856000	104.856000
535.231778	75.001167	151.458667	21.602278	21.602278	54.369778	54.369778
535.584969	33.981111	104.370556	70.389444	70.389444	-4.854444	-4.854444
535.938118	133.011778	168.206500	91.749000	91.749000	130.584556	130.584556
536.291224	62.865056	77.428389	134.468111	134.468111	64.078667	64.078667
536.644287	99.516111	57.039722	98.302500	98.302500	26.699444	26.699444
536.997309	101.943333	91.020833	88.593611	88.593611	81.311944	81.311944
537.350288	98.545222	68.204944	45.146333	45.146333	99.758833	99.758833
537.703224	115.535778	94.904389	83.981889	83.981889	134.953556	134.953556
538.056118	189.080611	99.273389	58.010611	58.010611	163.594778	163.594778
538.408970	131.798167	123.302889	133.011778	133.011778	140.293444	140.293444
538.761779	-23.544056	74.758444	62.622333	62.622333	34.709278	34.709278
539.114546	74.030278	64.321389	144.419722	144.419722	75.243889	75.243889
539.467270	91.991722	102.914222	48.301722	48.301722	44.660889	44.660889
539.819951	107.283222	104.856000	115.778500	115.778500	100.001556	100.001556
540.172591	207.284778	190.294222	185.439778	185.439778	179.371722	179.371722
540.525187	84.710056	94.418944	64.078667	64.078667	91.991722	91.991722
540.877741	76.942944	96.360722	80.583778	80.583778	32.039333	32.039333
541.230253	168.691944	117.720278	112.865833	112.865833	165.051111	165.051111
541.582722	75.729333	79.370167	89.079056	89.079056	50.243500	50.243500
541.935148	115.050333	73.787556	125.972833	125.972833	128.400056	128.400056
542.287532	123.788333	81.311944	156.555833	156.555833	91.020833	91.020833
542.639873	124.273778	102.428778	129.128222	129.128222	69.661278	69.661278
542.992172	134.468111	155.099500	140.536167	140.536167	152.672278	152.672278
543.344427	167.478333	167.478333	175.973611	175.973611	172.332778	172.332778
543.696641	182.284389	138.594389	162.866611	162.866611	110.681333	110.681333
544.048811	104.370556	169.905556	111.652222	111.652222	77.671111	77.671111
544.400939	191.265111	199.760389	202.187611	202.187611	214.323722	214.323722
544.753024	93.448056	122.574722	139.565278	139.565278	100.729722	100.729722
545.105066	155.342222	120.147500	141.992500	141.992500	92.234444	92.234444
545.457066	233.013333	143.206111	125.001944	125.001944	161.410278	161.410278
545.809023	176.944500	142.963389	174.517278	174.517278	173.303667	173.303667
546.160937	146.604222	141.749778	144.177000	144.177000	99.273389	99.273389
546.512808	92.234444	64.321389	93.448056	93.448056	76.457500	76.457500
546.864636	76.942944	125.487389	119.419333	119.419333	87.865444	87.865444
547.216422	113.351278	90.292667	188.595167	188.595167	211.653778	211.653778
547.568165	182.284389	208.983833	137.380778	137.380778	167.721056	167.721056
547.919865	111.652222	115.293056	111.652222	111.652222	115.293056	115.293056
548.271522	175.002722	182.284389	181.070778	181.070778	160.439389	160.439389
548.623136	167.235611	161.167556	121.118389	121.118389	119.904778	119.904778
548.974707	173.546389	157.769444	105.584167	105.584167	141.992500	141.992500
549.326236	136.409889	135.196278	176.459056	176.459056	148.546000	148.546000
549.677721	169.662833	218.207278	235.197833	235.197833	181.798944	181.798944
550.029164	139.565278	172.332778	173.546389	173.546389	150.487778	150.487778
550.380563	193.206889	201.702167	194.420500	194.420500	119.176611	119.176611
550.731920	102.914222	172.090056	232.770611	232.770611	227.916167	227.916167
551.083233	206.556611	128.885500	156.798556	156.798556	127.671889	127.671889
551.434504	146.604222	136.895333	219.420889	219.420889	129.613667	129.613667
551.785731	181.313500	150.973222	200.731278	200.731278	182.527111	182.527111
552.136916	162.623889	137.138056	127.429167	127.429167	168.691944	168.691944
552.488057	234.469667	266.023556	224.760778	224.760778	221.119944	221.119944
552.839156	221.848111	212.139222	213.352833	213.352833	180.585333	180.585333
553.190211	277.916944	192.964167	248.790278	248.790278	260.926389	260.926389
553.541223	156.555833	211.168333	197.818611	197.818611	152.915000	152.915000
553.892193	301.218278	316.995222	262.382722	262.382722	302.431889	302.431889
554.243119	287.625833	316.752500	324.034167	324.034167	270.635278	270.635278
554.594002	322.820556	324.034167	300.975556	300.975556	226.945278	226.945278
554.944841	207.284778	267.965333	297.092000	297.092000	264.324500	264.324500
555.295638	335.684833	318.694278	359.957056	359.957056	351.461778	351.461778
555.646391	313.354389	249.033000	259.955500	259.955500	250.246611	250.246611
555.997101	328.888611	305.830000	377.433056	377.433056	349.520000	349.520000
556.347768	441.511722	373.549500	426.948389	426.948389	356.558944	356.558944
556.698392	342.238333	379.860278	378.646667	378.646667	354.374444	354.374444
557.048972	384.472000	414.812278	417.239500	417.239500	425.734778	425.734778
557.399510	481.075444	530.833500	453.162389	453.162389	439.812667	439.812667
557.750004	616.757167	571.853556	613.116333	613.116333	594.912167	594.912167
558.100454	564.086444	642.971167	616.271722	616.271722	649.039222	649.039222
558.450862	660.204444	711.176111	638.359444	638.359444	728.166667	728.166667
558.801226	745.642667	749.283500	789.332667	789.332667	824.527389	824.527389
559.151546	853.411333	926.228000	852.197722	852.197722	877.683556	877.683556
559.501824	994.675667	1044.433722	1046.860944	1046.860944	1130.600111	1130.600111
559.852058	1244.679556	1289.583167	1328.418722	1328.418722	1349.050111	1349.050111
560.202248	1499.052444	1637.404111	1517.256611	1517.256611	1633.763278	1633.763278
560.552395	1778.425722	2015.079889	1852.456000	1852.456000	1843.960722	1843.960722
560.902499	2080.614889	2335.473222	2171.635722	2171.635722	2180.131000	2180.131000
561.252560	2408.532611	2789.606500	2466.785944	2466.785944	2667.031778	2667.031778
561.602576	2902.229611	3314.857389	2950.774056	2950.774056	3109.757111	3109.757111
561.952550	3582.094556	4027.489833	3641.561500	3641.561500	3642.775111	3642.775111
562.302480	4123.365111	4653.713167	4230.162889	4230.162889	4211.958722	4211.958722
562.652366	4996.436944	5620.233056	4961.242222	4961.242222	5115.370833	5115.370833
563.002209	5713.923833	6304.952444	5774.604389	5774.604389	5828.003278	5828.003278
563.352009	6862.242667	7545.505722	6768.794611	6768.794611	6806.416556	6806.416556
563.701765	7898.666556	8643.823778	7854.976556	7854.976556	7850.122111	7850.122111
564.051477	8967.615222	9957.921889	9101.112444	9101.112444	8658.144389	8658.144389
564.401146	10332.685000	11242.893333	10255.013889	10255.013889	10065.690556	10065.690556
564.750771	11982.467944	12733.693222	11618.384611	11618.384611	11401.148222	11401.148222
565.100353	13294.381556	14276.192944	13278.604611	13278.604611	12848.986278	12848.986278
565.449891	15075.962667	15876.946000	14759.210167	14759.210167	14109.928222	14109.928222
565.799385	16809.727500	17597.361111	16401.954167	16401.954167	15791.507778	15791.507778
566.148836	18931.847889	19070.199556	18133.291778	18133.291778	17288.618444	17288.618444
566.498243	20339.394056	20817.556833	19838.172667	19838.172667	19005.635444	19005.635444
566.847607	22115.635278	22531.903889	21870.485833	21870.485833	20348.617500	20348.617500
567.196927	23562.502444	23637.746333	23061.281056	23061.281056	21653.492167	21653.492167
567.546203	25517.629944	25158.401056	24881.697722	24881.697722	23095.262167	23095.262167
567.895435	27185.131611	26466.673833	26374.439389	26374.439389	24426.593556	24426.593556
568.244624	28799.234389	27748.247167	27811.354944	27811.354944	25541.902167	25541.902167
568.593768	29493.419944	28598.988556	28580.784389	28580.784389	26796.776056	26796.776056
568.942870	30014.059111	29041.956611	29433.953000	29433.953000	27123.237444	27123.237444
569.291927	30806.789889	28932.974333	29590.751556	29590.751556	27409.892389	27409.892389
569.640940	30447.803722	29042.442056	29286.377889	29286.377889	27401.639833	27401.639833
569.989910	30029.350611	28471.073944	28951.663944	28951.663944	27140.956167	27140.956167
570.338836	29659.684667	27920.579944	28725.204111	28725.204111	26580.753278	26580.753278
570.687718	28614.037333	26646.773722	27658.925389	27658.925389	25527.824278	25527.824278
571.036557	27310.861722	25424.910056	26407.935056	26407.935056	24229.503111	24229.503111
571.385351	25385.103611	24016.150278	24693.345278	24693.345278	22866.860556	22866.860556
571.734101	23843.817500	22792.830278	23187.253889	23187.253889	21753.979167	21753.979167
572.082808	22115.878000	21177.756611	21739.658556	21739.658556	20132.837444	20132.837444
572.431471	20581.630833	20005.165556	20065.846111	20065.846111	19142.288056	19142.288056
572.780089	19077.966667	18508.783056	18460.238611	18460.238611	17617.992500	17617.992500
573.128664	17739.596333	17306.337167	17182.548833	17182.548833	16635.210222	16635.210222
573.477195	16135.930611	15849.518389	15938.112000	15938.112000	15149.264778	15149.264778
573.825682	14796.832111	14645.130722	14710.665722	14710.665722	13882.982944	13882.982944
574.174125	13598.269778	13609.192278	13491.472000	13491.472000	12962.337556	12962.337556
574.522524	12408.930889	12325.191722	12154.072556	12154.072556	11722.027000	11722.027000
574.870879	11423.478667	11444.110056	11413.769778	11413.769778	10928.325333	10928.325333
575.219189	10442.638167	10549.435944	10374.675944	10374.675944	10195.061500	10195.061500
575.567456	9465.438500	9668.111556	9529.759889	9529.759889	9390.194611	9390.194611
575.915679	8680.717556	9010.819778	8755.961444	8755.961444	8623.677833	8623.677833
576.263858	7971.483222	8157.165722	8038.231833	8038.231833	7777.305444	7777.305444
576.611992	7303.268944	7374.872000	7319.045889	7319.045889	7257.151722	7257.151722
576.960083	6592.578278	6780.688000	6645.977167	6645.977167	6508.839111	6508.839111
577.308129	5966.354944	6098.638556	6150.823833	6150.823833	6037.958000	6037.958000
577.656131	5402.268500	5448.385722	5479.939611	5479.939611	5428.967944	5428.967944
578.004089	4768.763500	5080.661556	5058.816556	5058.816556	4996.922389	4996.922389
578.352003	4374.825333	4558.080611	4537.449222	4537.449222	4362.689222	4362.689222
578.699873	3912.196778	4085.743167	4059.043722	4059.043722	4057.830111	4057.830111
579.047698	3586.463556	3817.049667	3715.106333	3715.106333	3700.543000	3700.543000
579.395479	3247.866056	3315.828278	3432.334944	3432.334944	3382.576889	3382.576889
579.743217	2938.152500	3059.513611	2951.502222	2951.502222	3097.135556	3097.135556
580.090909	2676.497944	2765.091556	2756.596278	2756.596278	2674.070722	2674.070722
580.438558	2494.213556	2533.049111	2542.758000	2542.758000	2501.495222	2501.495222
580.786162	2178.431944	2299.793056	2325.278889	2325.278889	2262.171111	2262.171111
581.133722	2010.468167	2023.817889	2027.458722	2027.458722	2055.371778	2055.371778
581.481238	1784.493778	1916.777389	1943.476833	1943.476833	1875.514611	1875.514611
581.828709	1704.152722	1705.366333	1717.502444	1717.502444	1752.697167	1752.697167
582.176136	1606.821111	1620.170833	1572.840000	1572.840000	1572.840000	1572.840000
582.523519	1461.673222	1534.489889	1523.567389	1523.567389	1551.480444	1551.480444
582.870857	1418.954111	1496.625222	1414.099667	1414.099667	1478.421056	1478.421056
583.218151	1286.185056	1300.748389	1270.408111	1270.408111	1237.640611	1237.640611
583.565400	1241.524167	1208.756667	1214.824722	1214.824722	1276.718889	1276.718889
583.912605	1067.249611	1136.425444	1172.833778	1172.833778	1078.172111	1078.172111
584.259766	1080.599333	1132.784611	1106.085167	1106.085167	1053.899889	1053.899889
584.606882	1038.365667	1111.182333	1080.842056	1080.842056	1096.619000	1096.619000
584.953954	989.093056	1072.832222	957.539167	957.539167	979.384167	979.384167
585.300981	870.887333	850.255944	959.480944	959.480944	943.704000	943.704000
585.647964	966.762611	941.276778	875.741778	875.741778	929.140667	929.140667
585.994902	872.586389	855.595833	808.265000	808.265000	888.363333	888.363333
586.341796	799.769722	809.478611	875.013611	875.013611	853.168611	853.168611
586.688646	837.391667	877.440833	839.818889	839.818889	872.586389	872.586389
587.035450	752.681611	790.303556	798.798833	798.798833	790.303556	790.303556
587.382210	672.340556	750.011667	716.030556	716.030556	748.798056	748.798056
587.728926	725.739444	708.748889	686.903889	686.903889	703.894444	703.894444
588.075597	688.360222	684.719389	699.282722	699.282722	650.738278	650.738278
588.422223	588.115944	688.845667	619.669833	619.669833	600.252056	600.252056
588.768805	729.623000	690.787444	718.700500	718.700500	673.796889	673.796889
589.115342	667.000667	656.078167	665.787056	665.787056	630.592333	630.592333
589.461835	620.883444	563.843722	618.456222	618.456222	624.524278	624.524278
589.808282	607.291000	688.602944	677.680444	677.680444	694.671000	694.671000
590.154685	639.573056	649.281944	706.321667	706.321667	629.864167	629.864167
590.501044	524.280000	498.794167	566.756389	566.756389	540.056944	540.056944
590.847357	534.231611	553.649389	519.668278	519.668278	550.008556	550.008556
591.193626	513.600222	550.008556	543.940500	543.940500	478.405500	478.405500
591.539851	594.912167	575.494389	577.921611	577.921611	609.475500	609.475500
591.886030	536.173389	490.056167	448.793389	448.793389	498.551444	498.551444
592.232165	526.221778	458.259556	541.998722	541.998722	528.649000	528.649000
592.578255	475.250111	463.114000	478.890944	478.890944	482.531778	482.531778
592.924300	570.154500	554.377556	544.668667	544.668667	516.755611	516.755611
593.270300	552.435778	514.813833	519.668278	519.668278	539.086056	539.086056
593.616255	462.871278	471.366556	496.852389	496.852389	490.784333	490.784333
593.962166	451.706056	463.842167	492.968833	492.968833	422.579389	422.579389
594.308032	437.628167	395.151778	478.890944	478.890944	442.482611	442.482611
594.653852	490.784333	517.483778	450.735167	450.735167	495.638778	495.638778
594.999628	479.133667	416.025889	476.706444	476.706444	504.619500	504.619500
595.345359	425.977500	428.404722	440.540833	440.540833	459.958611	459.958611
595.691045	545.639556	474.036500	493.454278	493.454278	425.492056	425.492056
596.036686	441.269000	528.649000	398.792611	398.792611	418.210389	418.210389
596.382283	403.404333	443.453500	419.181278	419.181278	417.967667	417.967667
596.727834	375.976722	445.152556	365.054222	365.054222	400.248944	400.248944
597.073340	475.250111	448.550667	386.656500	386.656500	444.909833	444.909833
597.418801	419.424000	413.355944	450.977889	450.977889	486.172611	486.172611
597.764217	405.831556	494.425167	456.803222	456.803222	407.045167	407.045167
598.109589	438.841778	398.792611	402.433444	402.433444	390.297333	390.297333
598.454915	361.898833	347.335500	387.384667	387.384667	366.753278	366.753278
598.800196	363.840611	354.131722	331.073111	331.073111	340.782000	340.782000
599.145432	397.093556	412.870500	369.180500	369.180500	349.762722	349.762722
599.490623	327.189556	420.637611	356.316222	356.316222	353.889000	353.889000
599.835768	395.637222	336.170278	370.151389	370.151389	376.219444	376.219444
600.180869	347.578222	352.432667	370.636833	370.636833	397.336278	397.336278
600.525925	382.772944	305.101833	337.869333	337.869333	312.383500	312.383500
600.870935	353.646278	397.336278	351.219056	351.219056	370.636833	370.636833
601.215900	342.723778	342.723778	312.383500	312.383500	337.869333	337.869333
601.560820	285.926778	291.994833	366.025111	366.025111	305.344556	305.344556
601.905695	409.957833	447.579778	366.267833	366.267833	362.627000	362.627000
602.250525	333.743056	349.520000	290.053056	290.053056	333.743056	333.743056
602.595309	321.364222	311.655333	321.364222	321.364222	391.753667	391.753667
602.940048	333.014889	302.674611	320.878778	320.878778	307.529056	307.529056
603.284742	364.083333	370.151389	333.743056	333.743056	344.665556	344.665556
603.629390	298.791056	344.908278	283.014111	283.014111	269.664389	269.664389
603.973994	325.975944	338.112056	291.994833	291.994833	321.121500	321.121500
604.318552	339.811111	305.830000	309.470833	309.470833	315.538889	315.538889
604.663064	281.800500	341.267444	286.654944	286.654944	306.072722	306.072722
605.007532	271.363444	264.081778	296.849278	296.849278	305.344556	305.344556
605.351954	332.772167	406.802444	360.685222	360.685222	376.462167	376.462167
605.696330	314.082556	357.772556	323.791444	323.791444	333.500333	333.500333
606.040661	211.168333	216.022778	293.693889	293.693889	205.100278	205.100278
606.384947	208.012944	246.848500	262.625444	262.625444	217.721833	217.721833
606.729188	302.917333	262.868167	289.567611	289.567611	248.304833	248.304833
607.073383	263.839056	371.850444	329.374056	329.374056	301.461000	301.461000
607.417532	240.295000	251.217500	270.635278	270.635278	236.654167	236.654167
607.761636	186.896111	234.226944	201.459444	201.459444	217.236389	217.236389
608.105695	290.538500	292.965722	278.402389	278.402389	278.402389	278.402389
608.449708	248.547556	341.995611	310.441722	310.441722	287.383111	287.383111
608.793676	265.780833	269.421667	282.771389	282.771389	280.344167	280.344167
609.137598	265.780833	209.954722	206.313889	206.313889	228.158889	228.158889
609.481474	225.488944	240.052278	214.566444	214.566444	226.702556	226.702556
609.825305	287.140389	259.227333	302.917333	302.917333	179.129000	179.129000
610.169091	224.760778	268.450778	300.004667	300.004667	293.936611	293.936611
610.512831	183.498000	263.596333	212.624667	212.624667	187.138833	187.138833
610.856525	320.636056	306.072722	275.732444	275.732444	287.868556	287.868556
611.200174	315.053444	313.839833	244.664000	244.664000	267.722611	267.722611
611.543777	324.034167	270.635278	339.811111	339.811111	271.848889	271.848889
611.887334	234.226944	214.809167	288.839444	288.839444	236.654167	236.654167
612.230846	207.042056	245.877611	207.042056	207.042056	243.450389	243.450389
612.574312	207.770222	257.528278	228.401611	228.401611	148.303278	148.303278
612.917733	257.042833	257.042833	257.042833	257.042833	317.723389	317.723389
613.261107	258.013722	198.546778	217.964556	217.964556	200.974000	200.974000
613.604436	138.837111	180.099889	189.808778	189.808778	210.440167	210.440167
613.947720	219.420889	172.090056	184.226167	184.226167	191.507833	191.507833
614.290957	272.819778	294.664778	241.265889	241.265889	261.897278	261.897278
614.634149	224.032611	183.983444	179.129000	179.129000	261.654556	261.654556
614.977295	288.596722	259.470056	264.324500	264.324500	280.101444	280.101444
615.320395	252.188389	301.946444	215.780056	215.780056	220.634500	220.634500
615.663450	226.945278	171.119167	223.304444	223.304444	194.177778	194.177778
616.006458	271.120722	288.111278	255.343778	255.343778	268.693500	268.693500
616.349421	299.276500	275.004278	278.645111	278.645111	245.877611	245.877611
616.692338	256.557389	257.771000	220.149056	220.149056	235.926000	235.926000
617.035209	203.886667	127.429167	175.973611	175.973611	165.051111	165.051111
617.378034	115.778500	136.409889	188.595167	188.595167	181.313500	181.313500
617.720813	197.818611	188.109722	188.109722	188.109722	211.168333	211.168333
618.063546	270.878000	241.751333	224.760778	224.760778	251.460222	251.460222
618.406234	245.149444	166.264722	205.100278	205.100278	239.081389	239.081389
618.748875	212.624667	289.082167	240.537722	240.537722	275.732444	275.732444
619.091471	210.682889	231.314278	234.955111	234.955111	227.673444	227.673444
619.434020	198.789500	207.284778	246.120333	246.120333	207.284778	207.284778
619.776524	185.925222	133.739944	171.361889	171.361889	127.671889	127.671889
620.118982	159.468500	141.264333	121.846556	121.846556	164.322944	164.322944
620.461393	187.624278	151.215944	179.129000	179.129000	174.274556	174.274556
620.803759	200.488556	184.711611	145.876056	145.876056	134.953556	134.953556
621.146078	160.439389	151.944111	158.012167	158.012167	194.420500	194.420500
621.488351	170.148278	172.575500	142.235222	142.235222	184.711611	184.711611
621.830579	175.730889	146.604222	153.885889	153.885889	173.303667	173.303667
622.172760	209.469278	236.168722	171.847333	171.847333	256.800111	256.800111
622.514895	150.245056	164.808389	163.594778	163.594778	159.953944	159.953944
622.856984	226.702556	156.313111	175.730889	175.730889	170.876444	170.876444
623.199027	203.886667	172.332778	157.769444	157.769444	216.022778	216.022778
623.541024	149.031444	128.400056	170.876444	170.876444	158.740333	158.740333
623.882974	263.353611	206.313889	201.459444	201.459444	220.877222	220.877222
624.224878	190.294222	207.284778	220.634500	220.634500	167.235611	167.235611
624.566737	178.643556	85.195500	190.779667	190.779667	213.838278	213.838278
624.908549	184.468889	138.351667	202.673056	202.673056	177.187222	177.187222
625.250314	191.750556	241.508611	150.487778	150.487778	134.710833	134.710833
625.592034	94.904389	137.380778	144.662444	144.662444	121.603833	121.603833
625.933707	193.692333	119.662056	162.138444	162.138444	169.420111	169.420111
626.275334	209.226556	146.118778	152.186833	152.186833	144.905167	144.905167
626.616914	108.496833	92.719889	119.419333	119.419333	116.992111	116.992111
626.958449	188.352444	190.779667	256.314667	256.314667	191.993278	191.993278
627.299937	147.817833	169.662833	185.439778	185.439778	172.090056	172.090056
627.641378	163.594778	173.303667	162.381167	162.381167	174.517278	174.517278
627.982774	93.205333	149.031444	164.808389	164.808389	127.186444	127.186444
628.324123	209.712000	166.022000	179.371722	179.371722	178.158111	178.158111
628.665425	114.322167	145.876056	154.371333	154.371333	133.739944	133.739944
629.006681	128.885500	107.040500	109.467722	109.467722	110.681333	110.681333
629.347891	166.750167	183.740722	175.245444	175.245444	165.536556	165.536556
629.689055	90.778111	159.953944	122.332000	122.332000	117.477556	117.477556
630.030171	127.429167	157.769444	116.506667	116.506667	145.633333	145.633333
630.371242	176.216333	142.235222	148.303278	148.303278	132.526333	132.526333
630.712266	218.935444	142.477944	153.400444	153.400444	163.109333	163.109333
631.053243	125.730111	173.060944	114.807611	114.807611	105.098722	105.098722
631.394174	112.623111	139.322556	202.430333	202.430333	124.759222	124.759222
631.735059	165.293833	125.244667	134.953556	134.953556	159.225778	159.225778
632.075897	157.284000	137.866222	171.847333	171.847333	173.060944	173.060944
632.416688	125.244667	94.904389	105.826889	105.826889	121.603833	121.603833
632.757433	175.245444	120.632944	72.088500	72.088500	133.982667	133.982667
633.098131	176.459056	129.128222	85.438222	85.438222	118.205722	118.205722
633.438783	151.701389	177.187222	114.079444	114.079444	191.750556	191.750556
633.779388	139.565278	144.419722	121.361111	121.361111	167.478333	167.478333
634.119946	160.682111	100.001556	107.283222	107.283222	127.914611	127.914611
634.460458	164.322944	136.409889	211.653778	211.653778	129.128222	129.128222
634.800923	127.429167	101.943333	77.671111	77.671111	122.574722	122.574722
635.141342	125.730111	66.263167	83.253722	83.253722	126.943722	126.943722
635.481713	133.254500	150.245056	124.759222	124.759222	146.604222	146.604222
635.822038	138.837111	136.409889	103.642389	103.642389	148.546000	148.546000
636.162317	124.759222	106.555056	195.148667	195.148667	147.817833	147.817833
636.502548	131.555444	127.914611	110.924056	110.924056	95.147111	95.147111
636.842733	155.827667	195.876833	205.585722	205.585722	211.653778	211.653778
637.182871	162.138444	207.042056	123.302889	123.302889	113.594000	113.594000
637.522963	153.643167	171.847333	135.439000	135.439000	179.129000	179.129000
637.863007	101.700611	54.369778	98.059778	98.059778	83.496444	83.496444
638.203005	130.099111	58.496056	148.303278	148.303278	127.671889	127.671889
638.542956	118.205722	114.564889	86.651833	86.651833	96.360722	96.360722
638.882860	116.263944	116.263944	56.797000	56.797000	158.740333	158.740333
639.222717	101.700611	134.468111	116.263944	116.263944	82.282833	82.282833
639.562528	171.361889	113.108556	150.730500	150.730500	141.021611	141.021611
639.902291	139.808000	108.254111	103.399667	103.399667	111.894944	111.894944
640.242008	79.127444	51.214389	62.136889	62.136889	134.953556	134.953556
640.581677	115.778500	76.942944	49.029889	49.029889	89.079056	89.079056
640.921300	56.311556	41.748222	130.341833	130.341833	56.311556	56.311556
641.260876	102.428778	146.118778	143.691556	143.691556	118.205722	118.205722
641.600405	144.177000	180.585333	87.137278	87.137278	123.545611	123.545611
641.939887	151.215944	136.652611	129.370944	129.370944	142.720667	142.720667
642.279322	100.729722	101.943333	69.175833	69.175833	127.429167	127.429167
642.618710	45.631778	73.544833	101.457889	101.457889	80.826500	80.826500
642.958050	92.477167	107.040500	92.477167	92.477167	98.545222	98.545222
643.297344	129.128222	120.632944	80.583778	80.583778	118.205722	118.205722
643.636591	82.768278	138.594389	114.322167	114.322167	124.031056	124.031056
643.975791	112.380389	90.535389	91.749000	91.749000	107.525944	107.525944
644.314944	127.429167	118.933889	99.516111	99.516111	160.196667	160.196667
644.654049	101.943333	105.584167	138.351667	138.351667	155.342222	155.342222
644.993108	112.623111	121.118389	105.341444	105.341444	145.390611	145.390611
645.332119	139.079833	107.525944	95.389833	95.389833	102.671500	102.671500
645.671083	164.808389	136.895333	139.322556	139.322556	79.855611	79.855611
646.010000	95.389833	135.439000	142.720667	142.720667	128.157333	128.157333
646.348870	132.040889	78.642000	119.904778	119.904778	116.263944	116.263944
646.687693	164.565667	157.284000	188.837889	188.837889	203.401222	203.401222
647.026468	86.651833	70.874889	57.525167	57.525167	79.370167	79.370167
647.365197	56.068833	99.758833	73.059389	73.059389	59.709667	59.709667
647.703878	122.574722	109.225000	97.088889	97.088889	94.661667	94.661667
648.042511	133.011778	111.166778	100.244278	100.244278	148.788722	148.788722
648.381098	96.846167	81.069222	112.623111	112.623111	142.963389	142.963389
648.719637	130.584556	146.361500	103.885111	103.885111	92.962611	92.962611
649.058129	83.253722	35.922889	14.077889	14.077889	27.427611	27.427611
649.396574	64.806833	58.738778	83.011000	83.011000	80.583778	80.583778
649.734971	99.758833	120.390222	119.176611	119.176611	147.089667	147.089667
650.073321	108.011389	47.330833	58.253333	58.253333	103.156944	103.156944
650.411624	59.709667	94.904389	83.981889	83.981889	68.204944	68.204944
650.749879	33.010222	73.059389	79.127444	79.127444	97.331611	97.331611
651.088087	112.137667	100.001556	153.400444	153.400444	66.020444	66.020444
651.426248	136.895333	84.710056	127.186444	127.186444	95.632556	95.632556
651.764361	5.339889	33.252944	73.302111	73.302111	74.515722	74.515722
652.102427	125.730111	107.525944	69.904000	69.904000	114.807611	114.807611
652.440445	88.350889	72.573944	89.564500	89.564500	136.895333	136.895333
652.778416	114.807611	96.603444	179.129000	179.129000	183.983444	183.983444
653.116339	75.243889	108.011389	80.098333	80.098333	63.107778	63.107778
653.454215	98.545222	108.254111	54.855222	54.855222	53.641611	53.641611
653.792043	17.718722	99.030667	88.108167	88.108167	107.525944	107.525944
654.129824	35.194722	97.088889	110.438611	110.438611	89.807222	89.807222
654.467557	108.739556	133.011778	97.817056	97.817056	96.603444	96.603444
654.805243	103.885111	85.680944	67.476778	67.476778	94.176222	94.176222
655.142881	185.682500	134.710833	92.234444	92.234444	126.215556	126.215556
655.480472	115.050333	84.710056	107.768667	107.768667	110.195889	110.195889
655.818015	65.292278	55.583389	38.592833	38.592833	87.137278	87.137278
656.155510	94.418944	113.836722	156.313111	156.313111	93.205333	93.205333
656.492958	88.350889	61.651444	81.069222	81.069222	56.797000	56.797000
656.830358	23.058611	91.020833	16.990556	16.990556	52.185278	52.185278
657.167711	83.981889	65.777722	90.049944	90.049944	51.214389	51.214389
657.505015	133.982667	153.400444	160.682111	160.682111	97.574333	97.574333
657.842273	130.584556	78.399278	116.021222	116.021222	114.807611	114.807611
658.179482	155.099500	115.050333	67.719500	67.719500	95.632556	95.632556
658.516644	57.525167	39.321000	-46.845389	-46.845389	30.825722	30.825722
658.853758	104.370556	127.429167	112.865833	112.865833	110.438611	110.438611
659.190824	100.729722	92.234444	66.748611	66.748611	55.826111	55.826111
659.527842	75.001167	93.205333	78.642000	78.642000	13.107000	13.107000
659.864813	154.856778	136.652611	71.117611	71.117611	150.002333	150.002333
660.201736	117.477556	125.972833	121.118389	121.118389	144.177000	144.177000
660.538611	98.059778	112.623111	99.273389	99.273389	104.127833	104.127833
660.875438	93.690778	63.350500	75.486611	75.486611	91.263556	91.263556
661.212218	48.059000	89.321778	26.214000	26.214000	46.845389	46.845389
661.548950	72.573944	133.254500	94.418944	94.418944	93.205333	93.205333
661.885633	137.866222	131.798167	66.263167	66.263167	108.739556	108.739556
662.222269	137.138056	126.215556	84.952778	84.952778	115.293056	115.293056
662.558857	106.797778	118.933889	67.962222	67.962222	82.525556	82.525556
662.895397	254.615611	241.265889	289.810333	289.810333	215.780056	215.780056
663.231889	77.428389	79.855611	87.137278	87.137278	78.642000	78.642000
663.568334	21.845000	-7.281667	81.311944	81.311944	23.058611	23.058611
663.904730	144.177000	129.613667	125.972833	125.972833	77.428389	77.428389
664.241078	30.583000	87.622722	124.031056	124.031056	90.049944	90.049944
664.577378	120.875667	71.117611	80.826500	80.826500	66.263167	66.263167
664.913631	54.127056	118.448444	111.166778	111.166778	107.525944	107.525944
665.249835	30.097556	95.632556	66.505889	66.505889	62.865056	62.865056
665.585991	82.525556	75.243889	78.884722	78.884722	77.671111	77.671111
665.922099	116.749389	97.331611	83.981889	83.981889	36.651056	36.651056
666.258159	29.369389	70.632167	92.477167	92.477167	73.059389	73.059389
666.594171	60.680556	58.253333	95.875278	95.875278	175.973611	175.973611
666.930135	59.466944	117.720278	98.302500	98.302500	54.612500	54.612500
667.266051	158.983056	128.642778	137.138056	137.138056	105.584167	105.584167
667.601919	43.690000	53.398889	77.671111	77.671111	84.952778	84.952778
667.937738	115.293056	91.020833	65.535000	65.535000	76.457500	76.457500
668.273510	86.894556	116.021222	83.253722	83.253722	69.904000	69.904000
668.609233	371.850444	325.733222	351.219056	351.219056	311.169889	311.169889
668.944908	156.070389	159.711222	165.779278	165.779278	162.138444	162.138444
669.280535	65.535000	88.593611	82.525556	82.525556	66.748611	66.748611
669.616114	68.204944	98.545222	120.390222	120.390222	91.263556	91.263556
669.951644	148.546000	96.360722	152.186833	152.186833	81.797389	81.797389
670.287126	97.331611	9.951611	75.486611	75.486611	83.981889	83.981889
670.622560	118.205722	109.710444	167.963778	167.963778	140.050722	140.050722
670.957946	129.128222	79.370167	66.020444	66.020444	115.778500	115.778500
671.293283	104.370556	58.253333	91.020833	91.020833	77.671111	77.671111
671.628572	87.622722	120.390222	107.040500	107.040500	128.885500	128.885500
671.963813	63.593222	103.642389	75.729333	75.729333	100.001556	100.001556
672.299006	122.089278	188.837889	221.605389	221.605389	68.690389	68.690389
672.634150	129.856389	76.457500	66.748611	66.748611	134.710833	134.710833
672.969245	100.001556	64.806833	53.884333	53.884333	36.893778	36.893778
673.304293	123.788333	75.243889	65.535000	65.535000	46.117222	46.117222
673.639291	84.467333	125.730111	90.535389	90.535389	80.826500	80.826500
673.974242	103.642389	74.515722	112.137667	112.137667	72.088500	72.088500
674.309144	76.942944	35.680167	52.670722	52.670722	84.224611	84.224611
674.643998	132.040889	117.477556	132.040889	132.040889	98.059778	98.059778
674.978803	101.457889	89.321778	92.962611	92.962611	100.244278	100.244278
675.313560	124.759222	59.224222	41.020056	41.020056	65.292278	65.292278
675.648268	62.622333	122.089278	108.739556	108.739556	52.913444	52.913444
675.982928	80.583778	69.661278	52.670722	52.670722	89.079056	89.079056
676.317539	60.195111	159.711222	89.321778	89.321778	116.021222	116.021222
676.652101	24.757667	98.787944	73.302111	73.302111	98.787944	98.787944
676.986615	38.835556	65.535000	48.544444	48.544444	80.098333	80.098333
677.321081	54.127056	72.331222	102.671500	102.671500	35.922889	35.922889
677.655498	60.680556	92.234444	61.894167	61.894167	127.429167	127.429167
677.989866	44.175444	109.710444	64.806833	64.806833	62.379611	62.379611
678.324186	100.001556	118.205722	64.806833	64.806833	132.769056	132.769056
678.658457	94.904389	59.709667	99.758833	99.758833	107.040500	107.040500
678.992680	67.476778	38.350111	74.758444	74.758444	73.544833	73.544833
679.326854	81.554667	76.700222	92.477167	92.477167	132.526333	132.526333
679.660979	71.845778	88.836333	104.613278	104.613278	113.108556	113.108556
679.995055	64.078667	75.001167	37.379222	37.379222	83.496444	83.496444
680.329083	135.196278	115.778500	115.778500	115.778500	115.778500	115.778500
680.663062	140.050722	187.381556	137.623500	137.623500	204.372111	204.372111
680.996993	59.709667	57.282444	52.428000	52.428000	73.059389	73.059389
681.330874	112.623111	127.186444	90.778111	90.778111	146.604222	146.604222
681.664707	56.797000	53.156167	48.301722	48.301722	26.456722	26.456722
681.998491	70.632167	66.991333	66.991333	66.991333	7.524389	7.524389
682.332227	68.204944	36.651056	35.437444	35.437444	6.310778	6.310778
682.665913	96.118000	104.613278	74.273000	74.273000	91.263556	91.263556
682.999551	34.952000	38.592833	7.038944	7.038944	67.719500	67.719500
683.333140	65.049556	75.972056	41.990944	41.990944	101.457889	101.457889
683.666680	109.467722	124.031056	79.127444	79.127444	54.855222	54.855222
684.000171	63.350500	59.709667	33.010222	33.010222	23.301333	23.301333
684.333613	146.846944	77.671111	86.166389	86.166389	84.952778	84.952778
684.667006	99.273389	101.700611	77.428389	77.428389	118.691167	118.691167
685.000351	81.797389	90.292667	64.806833	64.806833	84.224611	84.224611
685.333646	6.068056	44.903611	10.922500	10.922500	36.408333	36.408333
685.666893	41.262778	100.729722	72.816667	72.816667	54.612500	54.612500
686.000091	68.690389	96.603444	67.476778	67.476778	113.594000	113.594000
686.333239	65.292278	55.583389	77.428389	77.428389	112.623111	112.623111
686.666339	67.476778	8.009833	55.340667	55.340667	91.749000	91.749000
686.999390	16.505111	39.563722	49.272611	49.272611	89.321778	89.321778
687.332391	22.573167	56.554278	80.826500	80.826500	35.922889	35.922889
687.665344	88.108167	83.253722	123.302889	123.302889	101.457889	101.457889
687.998247	-7.281667	71.603056	44.903611	44.903611	42.476389	42.476389
688.331102	62.622333	77.185667	60.195111	60.195111	63.835944	63.835944
688.663907	69.661278	5.339889	112.137667	112.137667	33.252944	33.252944
688.996664	54.127056	-5.339889	31.068444	31.068444	46.845389	46.845389
689.329371	100.972444	53.641611	87.622722	87.622722	66.991333	66.991333
689.662029	99.030667	143.934278	134.225389	134.225389	185.197056	185.197056
689.994638	79.370167	121.846556	102.428778	102.428778	100.001556	100.001556
690.327198	50.728944	90.778111	115.050333	115.050333	87.137278	87.137278
690.659708	100.487000	61.651444	123.545611	123.545611	42.233667	42.233667
690.992170	43.204556	9.223444	48.059000	48.059000	29.854833	29.854833
691.324582	114.564889	141.264333	133.982667	133.982667	101.215167	101.215167
691.656945	53.641611	71.845778	48.787167	48.787167	63.350500	63.350500
691.989259	33.738389	72.573944	62.865056	62.865056	98.059778	98.059778
692.321524	16.747833	53.156167	75.001167	75.001167	102.914222	102.914222
692.653739	58.981500	37.136500	60.195111	60.195111	80.826500	80.826500
692.985905	26.942167	90.049944	30.583000	30.583000	39.078278	39.078278
693.318022	60.680556	91.020833	65.535000	65.535000	108.011389	108.011389
693.650089	77.913833	39.078278	18.446889	18.446889	90.049944	90.049944
693.982107	22.815889	72.573944	21.602278	21.602278	48.301722	48.301722
694.314076	103.156944	52.185278	118.933889	118.933889	86.166389	86.166389
694.645996	67.476778	101.457889	112.380389	112.380389	79.612889	79.612889
694.977866	97.817056	82.040111	113.594000	113.594000	65.049556	65.049556
695.309686	44.903611	49.758056	42.476389	42.476389	55.826111	55.826111
695.641458	69.418556	57.282444	97.331611	97.331611	94.904389	94.904389
695.973180	100.001556	148.546000	126.701000	126.701000	100.001556	100.001556
696.304852	102.914222	58.010611	83.496444	83.496444	43.447278	43.447278
696.636475	86.651833	57.525167	121.846556	121.846556	119.419333	119.419333
696.968049	104.613278	88.836333	80.341056	80.341056	93.690778	93.690778
697.299573	107.525944	50.486222	108.739556	108.739556	90.535389	90.535389
697.631047	89.321778	77.185667	96.603444	96.603444	107.525944	107.525944
697.962472	69.661278	42.961833	73.302111	73.302111	5.339889	5.339889
698.293848	37.379222	98.059778	73.787556	73.787556	56.797000	56.797000
698.625174	46.602667	56.311556	76.942944	76.942944	40.534611	40.534611
698.956451	91.991722	-5.097167	62.865056	62.865056	33.738389	33.738389
699.287678	52.913444	68.690389	63.835944	63.835944	69.904000	69.904000
699.618855	21.359556	114.807611	55.340667	55.340667	52.913444	52.913444
699.949983	73.544833	78.399278	69.904000	69.904000	101.457889	101.457889
700.281061	122.817444	68.204944	126.458278	126.458278	43.932722	43.932722
700.612089	59.466944	15.776944	24.272222	24.272222	53.398889	53.398889
700.943068	22.815889	50.728944	84.710056	84.710056	56.797000	56.797000
701.273998	47.330833	19.417778	47.330833	47.330833	37.621944	37.621944
701.604877	78.399278	-5.339889	49.272611	49.272611	49.272611	49.272611
701.935707	85.195500	121.603833	130.099111	130.099111	92.477167	92.477167
702.266487	72.331222	88.108167	107.525944	107.525944	52.913444	52.913444
702.597218	112.865833	83.739167	118.933889	118.933889	131.070000	131.070000
702.927899	85.195500	170.148278	110.681333	110.681333	105.826889	105.826889
703.258530	52.185278	83.739167	10.922500	10.922500	92.234444	92.234444
703.589111	90.778111	104.127833	30.097556	30.097556	60.437833	60.437833
703.919642	58.496056	65.777722	56.068833	56.068833	96.118000	96.118000
704.250124	43.932722	20.874111	43.932722	43.932722	57.282444	57.282444
704.580556	73.787556	21.602278	61.651444	61.651444	36.165611	36.165611
704.910938	50.243500	51.457111	24.757667	24.757667	-4.369000	-4.369000
705.241270	15.776944	53.398889	43.690000	43.690000	42.476389	42.476389
705.571553	128.400056	79.855611	95.632556	95.632556	133.254500	133.254500
705.901785	32.767500	13.349722	-31.553889	-31.553889	-21.845000	-21.845000
706.231968	30.340278	64.321389	30.340278	30.340278	-3.640833	-3.640833
706.562101	-2.427222	-3.640833	38.835556	38.835556	33.981111	33.981111
706.892184	78.884722	43.690000	92.234444	92.234444	69.175833	69.175833
707.222216	83.253722	63.835944	107.525944	107.525944	89.321778	89.321778
707.552199	115.535778	148.303278	81.554667	81.554667	114.322167	114.322167
707.882132	77.428389	38.592833	62.865056	62.865056	85.923667	85.923667
708.212016	58.253333	72.816667	26.699444	26.699444	110.438611	110.438611
708.541849	22.573167	66.263167	34.709278	34.709278	55.340667	55.340667
708.871632	35.922889	92.962611	60.195111	60.195111	63.835944	63.835944
709.201365	100.487000	33.738389	62.865056	62.865056	73.787556	73.787556
709.531048	35.922889	-13.835167	80.826500	80.826500	52.913444	52.913444
709.860681	81.554667	42.719111	70.632167	70.632167	58.496056	58.496056
710.190264	106.312333	99.030667	94.176222	94.176222	85.680944	85.680944
710.519796	88.836333	128.885500	126.458278	126.458278	147.089667	147.089667
710.849279	-1.213611	70.389444	48.544444	48.544444	67.962222	67.962222
711.178712	85.680944	44.418167	103.885111	103.885111	102.671500	102.671500
711.508094	42.719111	46.359944	47.573556	47.573556	-7.038944	-7.038944
711.837427	3.640833	61.894167	4.854444	4.854444	77.671111	77.671111
712.166709	104.856000	103.642389	149.759611	149.759611	108.496833	108.496833
712.495941	91.263556	57.282444	109.467722	109.467722	46.359944	46.359944
712.825123	80.098333	46.117222	13.349722	13.349722	64.321389	64.321389
713.154255	131.312722	117.963000	80.341056	80.341056	105.826889	105.826889
713.483336	118.448444	68.690389	75.972056	75.972056	113.594000	113.594000
713.812367	83.981889	57.282444	24.514944	24.514944	23.301333	23.301333
714.141348	74.515722	62.379611	70.874889	70.874889	98.787944	98.787944
714.470279	96.118000	151.944111	125.244667	125.244667	114.322167	114.322167
714.799159	7.281667	122.574722	80.098333	80.098333	25.485833	25.485833
715.127990	5.097167	46.359944	39.078278	39.078278	-7.038944	-7.038944
715.456769	75.972056	74.758444	65.049556	65.049556	61.408722	61.408722
715.785499	98.302500	121.361111	123.788333	123.788333	105.584167	105.584167
716.114178	73.544833	78.399278	61.408722	61.408722	49.272611	49.272611
716.442807	64.564111	51.214389	81.554667	81.554667	92.477167	92.477167
716.771385	86.651833	50.243500	97.574333	97.574333	100.001556	100.001556
717.099914	59.709667	-3.398111	54.855222	54.855222	1.456333	1.456333
717.428391	100.972444	56.068833	80.341056	80.341056	48.787167	48.787167
717.756819	64.078667	42.233667	64.078667	64.078667	71.360333	71.360333
718.085195	79.855611	59.224222	51.942556	51.942556	78.642000	78.642000
718.413522	129.856389	63.107778	98.302500	98.302500	44.903611	44.903611
718.741798	37.864667	53.641611	31.796611	31.796611	7.524389	7.524389
719.070023	74.273000	25.728556	40.291889	40.291889	98.545222	98.545222
719.398198	164.808389	98.059778	104.127833	104.127833	96.846167	96.846167
719.726323	73.302111	93.933500	64.806833	64.806833	50.243500	50.243500
720.054397	91.991722	89.564500	99.273389	99.273389	65.292278	65.292278
720.382420	146.604222	105.341444	113.836722	113.836722	90.778111	90.778111
720.710393	122.332000	133.254500	158.740333	158.740333	105.341444	105.341444
721.038316	50.000778	79.127444	57.282444	57.282444	25.728556	25.728556
721.366188	30.825722	68.447667	44.175444	44.175444	70.874889	70.874889
721.694009	29.369389	34.223833	19.660500	19.660500	20.874111	20.874111
722.021779	30.340278	44.903611	43.690000	43.690000	44.903611	44.903611
722.349499	111.652222	97.088889	75.243889	75.243889	66.748611	66.748611
722.677169	7.524389	90.049944	-0.970889	-0.970889	53.641611	53.641611
723.004787	32.524778	53.156167	64.078667	64.078667	49.515333	49.515333
723.332355	92.962611	58.981500	114.807611	114.807611	120.875667	120.875667
723.659873	69.175833	50.971667	52.185278	52.185278	59.466944	59.466944
723.987339	104.127833	94.418944	64.078667	64.078667	82.282833	82.282833
724.314755	96.846167	70.146722	54.369778	54.369778	4.611722	4.611722
724.642120	43.447278	113.836722	47.088111	47.088111	89.564500	89.564500
724.969435	43.447278	20.388667	110.195889	110.195889	58.010611	58.010611
725.296699	16.747833	71.360333	39.806444	39.806444	59.224222	59.224222
725.623911	103.642389	140.050722	154.614056	154.614056	108.496833	108.496833
725.951074	33.495667	60.195111	32.282056	32.282056	78.399278	78.399278
726.278185	81.069222	65.292278	54.369778	54.369778	85.923667	85.923667
726.605245	104.127833	70.146722	111.409500	111.409500	102.914222	102.914222
726.932255	118.691167	125.972833	99.273389	99.273389	71.360333	71.360333
727.259214	61.894167	89.807222	32.767500	32.767500	75.243889	75.243889
727.586122	62.865056	27.670333	26.456722	26.456722	58.010611	58.010611
727.912979	28.155778	28.155778	36.651056	36.651056	76.700222	76.700222
728.239785	114.322167	71.845778	98.545222	98.545222	119.176611	119.176611
728.566540	42.719111	65.777722	66.991333	66.991333	63.350500	63.350500
728.893245	56.311556	17.476000	83.011000	83.011000	33.252944	33.252944
729.219898	61.651444	87.137278	91.991722	91.991722	95.632556	95.632556
729.546501	20.388667	37.379222	96.846167	96.846167	16.747833	16.747833
729.873052	33.495667	57.767889	40.777333	40.777333	3.155389	3.155389
730.199552	107.283222	120.632944	121.846556	121.846556	171.604611	171.604611
730.526002	99.516111	97.088889	50.971667	50.971667	82.525556	82.525556
730.852400	51.699833	65.049556	63.835944	63.835944	66.263167	66.263167
731.178748	64.321389	91.020833	84.952778	84.952778	74.030278	74.030278
731.505044	26.699444	33.981111	37.621944	37.621944	38.835556	38.835556
731.831290	-8.495278	25.485833	1.213611	1.213611	-3.640833	-3.640833
732.157484	62.136889	34.223833	65.777722	65.777722	83.981889	83.981889
732.483627	42.233667	-0.242722	45.874500	45.874500	81.069222	81.069222
732.809719	15.291500	27.427611	-25.971278	-25.971278	61.408722	61.408722
733.135760	109.953167	91.749000	91.749000	91.749000	94.176222	94.176222
733.461750	71.117611	31.068444	72.331222	72.331222	68.690389	68.690389
733.787688	85.923667	117.477556	72.573944	72.573944	38.592833	38.592833
734.113576	34.223833	34.223833	79.127444	79.127444	23.301333	23.301333
734.439412	65.049556	67.476778	147.575111	147.575111	116.021222	116.021222
734.765197	129.613667	55.583389	82.282833	82.282833	87.137278	87.137278
735.090931	56.554278	60.195111	51.699833	51.699833	77.185667	77.185667
735.416614	6.310778	46.359944	73.059389	73.059389	34.223833	34.223833
735.742245	80.583778	59.952389	103.642389	103.642389	61.166000	61.166000
736.067825	142.963389	132.040889	176.944500	176.944500	117.477556	117.477556
736.393354	147.089667	100.972444	43.932722	43.932722	117.963000	117.963000
736.718832	139.322556	153.885889	111.409500	111.409500	133.254500	133.254500
737.044258	62.379611	51.457111	38.107389	38.107389	42.961833	42.961833
737.369633	64.078667	20.388667	77.428389	77.428389	7.038944	7.038944
737.694957	56.311556	47.816278	23.544056	23.544056	13.835167	13.835167
738.020229	83.496444	88.350889	36.165611	36.165611	108.982278	108.982278
738.345450	95.147111	36.893778	95.147111	95.147111	69.661278	69.661278
738.670619	100.244278	23.786778	32.282056	32.282056	20.145944	20.145944
738.995738	82.282833	47.088111	44.660889	44.660889	78.642000	78.642000
739.320804	121.118389	104.127833	145.390611	145.390611	128.400056	128.400056
739.645820	13.592444	-26.456722	51.214389	51.214389	6.310778	6.310778
739.970784	95.875278	44.903611	86.166389	86.166389	49.758056	49.758056
740.295696	61.408722	23.786778	41.990944	41.990944	52.913444	52.913444
740.620557	75.243889	89.807222	71.603056	71.603056	53.398889	53.398889
740.945366	40.291889	87.622722	46.359944	46.359944	68.204944	68.204944
741.270124	39.078278	82.768278	77.913833	77.913833	69.418556	69.418556
741.594831	89.321778	48.059000	79.612889	79.612889	55.340667	55.340667
741.919486	40.291889	51.214389	29.369389	29.369389	31.796611	31.796611
742.244089	85.195500	43.932722	14.806056	14.806056	53.641611	53.641611
742.568641	69.904000	151.215944	80.826500	80.826500	109.953167	109.953167
742.893141	52.185278	88.593611	58.253333	58.253333	77.671111	77.671111
743.217590	119.419333	153.400444	115.778500	115.778500	132.769056	132.769056
743.541987	100.001556	70.874889	112.137667	112.137667	80.583778	80.583778
743.866332	94.661667	35.194722	65.535000	65.535000	47.330833	47.330833
744.190626	56.554278	57.767889	71.117611	71.117611	67.476778	67.476778
744.514868	63.107778	61.894167	87.380000	87.380000	100.729722	100.729722
744.839058	75.486611	70.632167	77.913833	77.913833	57.282444	57.282444
745.163197	50.243500	97.574333	119.419333	119.419333	64.806833	64.806833
745.487284	273.305222	215.051889	314.568000	314.568000	210.197444	210.197444
745.811320	146.118778	87.865444	69.661278	69.661278	119.419333	119.419333
746.135303	69.418556	80.341056	81.554667	81.554667	70.632167	70.632167
746.459235	84.224611	87.865444	83.011000	83.011000	40.534611	40.534611
746.783115	25.728556	33.010222	58.496056	58.496056	51.214389	51.214389
747.106944	36.165611	79.855611	43.447278	43.447278	30.097556	30.097556
747.430720	36.165611	42.233667	26.456722	26.456722	67.719500	67.719500
747.754445	29.369389	33.010222	19.660500	19.660500	51.214389	51.214389
748.078118	82.768278	134.953556	111.894944	111.894944	97.331611	97.331611
748.401739	24.272222	44.903611	36.408333	36.408333	54.612500	54.612500
748.725308	105.826889	98.545222	103.399667	103.399667	121.603833	121.603833
749.048825	45.631778	44.418167	26.214000	26.214000	54.127056	54.127056
749.372291	15.048778	61.166000	84.224611	84.224611	27.184889	27.184889
749.695705	71.117611	65.049556	67.476778	67.476778	33.495667	33.495667
750.019066	20.388667	30.097556	65.292278	65.292278	41.020056	41.020056
750.342376	57.525167	40.534611	55.097944	55.097944	5.339889	5.339889
750.665634	54.612500	77.671111	86.166389	86.166389	46.117222	46.117222
750.988840	58.981500	49.272611	37.136500	37.136500	78.399278	78.399278
751.311994	54.612500	76.457500	61.894167	61.894167	70.389444	70.389444
751.635096	42.961833	81.797389	49.029889	49.029889	86.651833	86.651833
751.958146	11.893389	4.611722	51.942556	51.942556	32.524778	32.524778
752.281143	0.242722	17.233278	50.000778	50.000778	51.214389	51.214389
752.604089	46.117222	109.225000	117.720278	117.720278	88.593611	88.593611
752.926983	8.009833	-4.126278	14.077889	14.077889	-10.194333	-10.194333
753.249825	9.223444	54.127056	75.972056	75.972056	35.922889	35.922889
753.572615	38.107389	89.079056	63.593222	63.593222	15.048778	15.048778
753.895352	12.136111	26.699444	29.126667	29.126667	15.776944	15.776944
754.218038	148.546000	125.487389	89.079056	89.079056	157.041278	157.041278
754.540671	85.195500	22.087722	70.632167	70.632167	30.583000	30.583000
754.863252	99.273389	60.437833	79.855611	79.855611	88.350889	88.350889
755.185781	86.651833	61.166000	96.360722	96.360722	64.806833	64.806833
755.508258	142.720667	164.565667	141.507056	141.507056	126.943722	126.943722
755.830683	28.883944	59.224222	87.137278	87.137278	50.728944	50.728944
756.153056	14.320611	62.865056	113.836722	113.836722	73.787556	73.787556
756.475376	41.020056	94.418944	72.573944	72.573944	90.778111	90.778111
756.797644	63.350500	-9.466167	-8.252556	-8.252556	-5.825333	-5.825333
757.119860	75.729333	46.602667	109.710444	109.710444	6.553500	6.553500
757.442023	121.603833	138.594389	138.594389	138.594389	142.235222	142.235222
757.764135	23.301333	46.359944	14.806056	14.806056	51.214389	51.214389
758.086194	105.341444	94.418944	82.282833	82.282833	140.536167	140.536167
758.408201	67.476778	58.981500	35.922889	35.922889	100.244278	100.244278
758.730155	101.457889	109.953167	75.972056	75.972056	84.467333	84.467333
759.052057	105.098722	111.166778	58.981500	58.981500	91.749000	91.749000
759.373907	35.922889	27.427611	88.108167	88.108167	27.427611	27.427611
759.695704	9.223444	-53.884333	25.000389	25.000389	9.223444	9.223444
760.017449	1.699056	17.476000	5.339889	5.339889	22.330444	22.330444
760.339142	27.913056	64.321389	40.049167	40.049167	18.204167	18.204167
760.660782	108.011389	57.039722	77.671111	77.671111	84.952778	84.952778
760.982370	136.167167	108.254111	79.127444	79.127444	94.904389	94.904389
761.303905	75.243889	-21.845000	58.253333	58.253333	83.739167	83.739167
761.625388	66.263167	41.990944	80.826500	80.826500	18.932333	18.932333
761.946818	77.671111	67.962222	0.000000	0.000000	19.417778	19.417778
762.268196	53.641611	62.136889	74.273000	74.273000	31.796611	31.796611
762.589521	38.350111	-30.825722	37.136500	37.136500	-1.699056	-1.699056
762.910794	94.904389	71.845778	73.059389	73.059389	83.981889	83.981889
763.232015	11.407944	30.825722	21.116833	21.116833	72.088500	72.088500
763.553182	14.077889	-36.893778	10.437056	10.437056	38.350111	38.350111
763.874298	18.689611	59.952389	66.020444	66.020444	73.302111	73.302111
764.195360	97.331611	40.291889	54.855222	54.855222	92.477167	92.477167
764.516370	70.389444	97.088889	89.807222	89.807222	84.952778	84.952778
764.837328	19.903222	103.642389	68.447667	68.447667	86.651833	86.651833
765.158233	44.660889	83.496444	98.059778	98.059778	105.341444	105.341444
765.479085	69.904000	35.922889	-8.980722	-8.980722	-23.544056	-23.544056
765.799885	40.049167	30.340278	40.049167	40.049167	-24.272222	-24.272222
766.120631	42.961833	85.438222	69.661278	69.661278	36.893778	36.893778
766.441326	67.962222	60.680556	106.797778	106.797778	61.894167	61.894167
766.761967	51.942556	101.700611	54.369778	54.369778	110.195889	110.195889
767.082556	-2.184500	64.564111	76.700222	76.700222	47.573556	47.573556
767.403092	151.458667	169.662833	155.099500	155.099500	135.681722	135.681722
767.723575	33.252944	29.612111	61.166000	61.166000	27.184889	27.184889
768.044006	72.816667	49.758056	94.661667	94.661667	92.234444	92.234444
768.364384	71.845778	91.263556	77.913833	77.913833	115.535778	115.535778
768.684709	169.905556	81.311944	71.603056	71.603056	95.875278	95.875278
769.004981	1.213611	41.262778	74.030278	74.030278	43.690000	43.690000
769.325200	37.136500	54.127056	103.885111	103.885111	49.272611	49.272611
769.645367	52.185278	35.194722	35.194722	35.194722	46.117222	46.117222
769.965481	77.185667	50.486222	130.584556	130.584556	84.467333	84.467333
770.285541	64.564111	17.233278	29.369389	29.369389	71.845778	71.845778
770.605549	50.243500	28.398500	106.069611	106.069611	100.001556	100.001556
770.925504	40.291889	69.418556	57.282444	57.282444	29.369389	29.369389
771.245407	0.970889	56.797000	44.660889	44.660889	56.797000	56.797000
771.565256	100.244278	66.263167	46.845389	46.845389	31.068444	31.068444
771.885052	137.866222	51.699833	50.486222	50.486222	38.350111	38.350111
772.204795	24.514944	22.087722	90.049944	90.049944	33.010222	33.010222
772.524486	87.137278	70.146722	16.747833	16.747833	-6.310778	-6.310778
772.844123	91.506278	45.389056	80.583778	80.583778	53.884333	53.884333
773.163708	116.749389	105.826889	91.263556	91.263556	104.613278	104.613278
773.483239	27.427611	43.204556	49.272611	49.272611	26.214000	26.214000
773.802717	188.837889	202.187611	185.197056	185.197056	185.197056	185.197056
774.122142	79.127444	29.369389	31.796611	31.796611	91.263556	91.263556
774.441515	18.932333	-2.912667	67.476778	67.476778	21.359556	21.359556
774.760834	-10.922500	-10.922500	41.262778	41.262778	54.612500	54.612500
775.080100	33.495667	75.972056	48.059000	48.059000	78.399278	78.399278
775.399313	99.273389	47.088111	60.437833	60.437833	90.778111	90.778111
775.718473	90.049944	43.932722	87.622722	87.622722	99.758833	99.758833
776.037579	56.554278	37.136500	10.437056	10.437056	80.826500	80.826500
776.356633	50.243500	76.942944	50.243500	50.243500	59.952389	59.952389
776.675633	57.039722	82.525556	92.234444	92.234444	42.476389	42.476389
776.994580	82.040111	20.145944	39.563722	39.563722	102.671500	102.671500
777.313474	78.642000	90.778111	122.332000	122.332000	68.933111	68.933111
777.632315	55.340667	22.573167	74.758444	74.758444	49.272611	49.272611
777.951103	50.000778	62.136889	57.282444	57.282444	102.186056	102.186056
778.269837	65.535000	70.389444	69.175833	69.175833	50.971667	50.971667
778.588518	68.447667	86.651833	70.874889	70.874889	38.107389	38.107389
778.907146	1.699056	-4.369000	1.699056	1.699056	17.476000	17.476000
779.225720	42.476389	66.748611	32.767500	32.767500	30.340278	30.340278
779.544242	26.699444	58.253333	43.690000	43.690000	35.194722	35.194722
779.862709	91.020833	74.030278	76.457500	76.457500	36.408333	36.408333
780.181124	71.117611	66.263167	112.380389	112.380389	55.340667	55.340667
780.499485	55.340667	21.359556	73.544833	73.544833	33.495667	33.495667
780.817793	11.650667	50.486222	26.214000	26.214000	75.972056	75.972056
781.136047	36.651056	48.787167	80.341056	80.341056	22.087722	22.087722
781.454248	107.768667	125.972833	68.933111	68.933111	70.146722	70.146722
781.772396	20.145944	21.359556	54.127056	54.127056	67.476778	67.476778
782.090490	40.291889	59.709667	83.981889	83.981889	93.690778	93.690778
782.408531	22.573167	33.495667	54.127056	54.127056	18.932333	18.932333
782.726518	75.486611	85.195500	74.273000	74.273000	65.777722	65.777722
783.044452	22.087722	17.233278	33.010222	33.010222	45.146333	45.146333
783.362333	25.243111	2.184500	0.970889	0.970889	44.660889	44.660889
783.680159	18.932333	18.932333	9.223444	9.223444	82.040111	82.040111
783.997933	145.390611	93.205333	90.778111	90.778111	111.409500	111.409500
784.315653	84.952778	36.408333	47.330833	47.330833	91.020833	91.020833
784.633319	29.126667	64.321389	49.758056	49.758056	65.535000	65.535000
784.950932	72.331222	88.108167	131.798167	131.798167	74.758444	74.758444
785.268491	75.972056	80.826500	71.117611	71.117611	112.380389	112.380389
785.585996	1.456333	31.796611	59.709667	59.709667	18.446889	18.446889
785.903448	68.204944	45.146333	107.040500	107.040500	20.874111	20.874111
786.220847	80.098333	98.302500	63.107778	63.107778	40.049167	40.049167
786.538191	67.476778	86.894556	91.749000	91.749000	55.340667	55.340667
786.855482	38.835556	116.506667	86.166389	86.166389	99.516111	99.516111
787.172720	79.855611	62.865056	77.428389	77.428389	38.592833	38.592833
787.489903	32.524778	36.165611	71.360333	71.360333	45.874500	45.874500
787.807033	81.554667	63.350500	76.700222	76.700222	51.214389	51.214389
788.124110	51.457111	44.175444	52.670722	52.670722	0.485444	0.485444
788.441132	106.312333	94.176222	60.195111	60.195111	80.826500	80.826500
788.758101	61.166000	61.166000	109.710444	109.710444	73.302111	73.302111
789.075016	117.477556	64.078667	107.768667	107.768667	150.245056	150.245056
789.391877	31.311167	33.738389	54.369778	54.369778	31.311167	31.311167
789.708685	21.116833	15.048778	44.175444	44.175444	30.825722	30.825722
790.025438	-32.039333	60.195111	44.418167	44.418167	-4.126278	-4.126278
790.342138	-16.505111	11.407944	-15.291500	-15.291500	97.574333	97.574333
790.658784	32.524778	37.379222	47.088111	47.088111	-23.301333	-23.301333
790.975376	52.185278	24.272222	70.389444	70.389444	19.417778	19.417778
791.291915	87.622722	115.535778	90.049944	90.049944	91.263556	91.263556
791.608399	5.097167	59.709667	51.214389	51.214389	46.359944	46.359944
791.924830	30.583000	-7.038944	25.728556	25.728556	5.097167	5.097167
792.241206	-13.107000	13.592444	14.806056	14.806056	-0.970889	-0.970889
792.557529	66.020444	18.689611	49.029889	49.029889	81.797389	81.797389
792.873798	76.700222	53.641611	11.165222	11.165222	50.000778	50.000778
793.190012	66.991333	81.554667	51.214389	51.214389	14.806056	14.806056
793.506173	62.622333	37.136500	27.427611	27.427611	68.690389	68.690389
793.822280	19.660500	35.437444	39.078278	39.078278	-0.970889	-0.970889
794.138333	62.379611	58.738778	-6.796222	-6.796222	62.379611	62.379611
794.454332	83.981889	43.932722	30.583000	30.583000	64.564111	64.564111
794.770277	145.147889	116.021222	31.068444	31.068444	48.059000	48.059000
795.086167	112.380389	34.709278	40.777333	40.777333	61.408722	61.408722
795.402004	68.933111	84.710056	55.583389	55.583389	72.573944	72.573944
795.717787	61.894167	25.485833	14.563333	14.563333	23.058611	23.058611
796.033515	21.116833	5.339889	-21.359556	-21.359556	44.175444	44.175444
796.349190	59.952389	18.689611	47.816278	47.816278	92.719889	92.719889
796.664810	51.699833	116.021222	34.709278	34.709278	114.807611	114.807611
796.980376	45.146333	56.068833	50.000778	50.000778	12.378833	12.378833
797.295888	65.292278	36.165611	-3.883556	-3.883556	71.360333	71.360333
797.611346	79.855611	45.874500	41.020056	41.020056	125.972833	125.972833
797.926750	97.817056	38.350111	67.476778	67.476778	66.263167	66.263167
798.242099	83.011000	125.487389	75.729333	75.729333	110.924056	110.924056
798.557394	112.137667	130.341833	131.555444	131.555444	121.846556	121.846556
798.872635	95.875278	63.107778	52.185278	52.185278	44.903611	44.903611
799.187822	70.632167	33.010222	79.127444	79.127444	79.127444	79.127444
799.502955	74.030278	72.816667	30.340278	30.340278	54.612500	54.612500
799.818033	68.447667	89.079056	51.457111	51.457111	41.748222	41.748222
800.133057	37.621944	66.748611	44.903611	44.903611	53.398889	53.398889
800.448027	114.807611	105.098722	102.671500	102.671500	73.544833	73.544833
800.762942	62.865056	79.855611	51.942556	51.942556	24.029500	24.029500
801.077803	42.233667	76.214778	36.165611	36.165611	43.447278	43.447278
801.392610	-13.107000	1.456333	30.583000	30.583000	29.369389	29.369389
801.707362	66.748611	97.088889	78.884722	78.884722	63.107778	63.107778
802.022060	85.438222	23.544056	42.961833	42.961833	55.097944	55.097944
802.336703	68.690389	79.612889	94.176222	94.176222	146.361500	146.361500
802.651292	7.524389	24.514944	1.456333	1.456333	22.087722	22.087722
802.965827	42.476389	53.398889	-4.854444	-4.854444	15.776944	15.776944
803.280307	8.009833	67.476778	74.758444	74.758444	79.612889	79.612889
803.594733	41.262778	76.457500	120.147500	120.147500	33.981111	33.981111
803.909104	5.097167	80.341056	19.660500	19.660500	30.583000	30.583000
804.223421	72.088500	86.651833	66.020444	66.020444	83.011000	83.011000
804.537684	47.088111	5.825333	11.893389	11.893389	-33.010222	-33.010222
804.851891	72.331222	79.612889	118.448444	118.448444	88.108167	88.108167
805.166045	27.670333	54.369778	42.233667	42.233667	88.350889	88.350889
805.480143	70.632167	105.826889	43.932722	43.932722	16.019667	16.019667
805.794188	43.690000	97.088889	38.835556	38.835556	97.088889	97.088889
806.108177	69.175833	99.516111	1.213611	1.213611	38.835556	38.835556
806.422112	191.265111	137.866222	156.070389	156.070389	176.701778	176.701778
806.735993	53.641611	-14.320611	31.796611	31.796611	53.641611	53.641611
807.049818	19.175056	101.700611	68.933111	68.933111	90.778111	90.778111
807.363590	64.564111	39.078278	16.019667	16.019667	62.136889	62.136889
807.677306	98.787944	39.321000	53.884333	53.884333	79.370167	79.370167
807.990968	112.137667	28.398500	102.428778	102.428778	58.738778	58.738778
808.304575	81.797389	132.769056	92.719889	92.719889	96.360722	96.360722
808.618128	37.621944	74.030278	89.807222	89.807222	55.826111	55.826111
808.931625	70.632167	65.777722	115.535778	115.535778	109.467722	109.467722
809.245068	48.301722	45.874500	53.156167	53.156167	9.466167	9.466167
809.558457	-3.883556	26.456722	-23.301333	-23.301333	-16.019667	-16.019667
809.871790	63.350500	93.690778	63.350500	63.350500	47.573556	47.573556
810.185069	38.835556	89.807222	53.398889	53.398889	88.593611	88.593611
810.498293	150.002333	21.359556	140.293444	140.293444	95.389833	95.389833
810.811462	89.807222	69.175833	101.943333	101.943333	74.030278	74.030278
811.124576	64.321389	30.340278	50.971667	50.971667	58.253333	58.253333
811.437636	20.631389	40.049167	12.136111	12.136111	-7.281667	-7.281667
811.750640	30.583000	14.806056	31.796611	31.796611	70.632167	70.632167
812.063590	29.126667	57.039722	47.330833	47.330833	80.098333	80.098333
812.376485	105.826889	93.690778	73.059389	73.059389	77.913833	77.913833
812.689325	1.699056	1.699056	67.234056	67.234056	40.534611	40.534611
813.002110	67.234056	57.525167	53.884333	53.884333	102.428778	102.428778
813.314840	42.476389	43.690000	69.175833	69.175833	84.952778	84.952778
813.627516	42.476389	94.661667	37.621944	37.621944	35.194722	35.194722
813.940136	10.922500	57.039722	33.981111	33.981111	-3.640833	-3.640833
814.252701	54.369778	49.515333	47.088111	47.088111	53.156167	53.156167
814.565212	73.544833	66.263167	58.981500	58.981500	116.021222	116.021222
814.877667	-42.233667	41.505500	-14.320611	-14.320611	54.855222	54.855222
815.190067	122.817444	77.913833	111.894944	111.894944	137.380778	137.380778
815.502413	33.738389	71.360333	128.400056	128.400056	107.768667	107.768667
815.814703	107.040500	85.195500	104.613278	104.613278	62.136889	62.136889
816.126938	89.079056	86.651833	76.942944	76.942944	102.428778	102.428778
816.439118	78.642000	95.632556	84.710056	84.710056	58.010611	58.010611
816.751243	92.719889	46.602667	41.748222	41.748222	62.379611	62.379611
817.063313	84.224611	132.769056	66.020444	66.020444	104.856000	104.856000
817.375328	57.282444	53.641611	14.806056	14.806056	17.233278	17.233278
817.687287	63.107778	97.088889	108.011389	108.011389	52.185278	52.185278
817.999192	66.263167	71.117611	33.495667	33.495667	52.913444	52.913444
818.311041	81.311944	33.981111	25.485833	25.485833	81.311944	81.311944
818.622835	-20.631389	47.330833	20.631389	20.631389	59.466944	59.466944
818.934574	89.079056	72.088500	49.029889	49.029889	19.903222	19.903222
819.246258	-16.262389	48.059000	1.941778	1.941778	26.214000	26.214000
819.557887	-2.912667	67.476778	69.904000	69.904000	40.777333	40.777333
819.869460	60.923278	39.078278	50.000778	50.000778	76.700222	76.700222
820.180978	50.243500	79.370167	27.184889	27.184889	63.593222	63.593222
820.492441	51.214389	-27.670333	42.719111	42.719111	8.738000	8.738000
820.803848	69.661278	79.370167	70.874889	70.874889	57.525167	57.525167
821.115200	110.924056	68.447667	81.797389	81.797389	67.234056	67.234056
821.426497	50.243500	25.971278	96.360722	96.360722	63.593222	63.593222
821.737739	56.797000	75.001167	-11.165222	-11.165222	50.728944	50.728944
822.048925	56.797000	84.710056	115.050333	115.050333	5.825333	5.825333
822.360056	94.418944	24.029500	30.097556	30.097556	50.728944	50.728944
822.671131	80.341056	86.409111	37.864667	37.864667	73.059389	73.059389
822.982151	13.835167	22.330444	-4.369000	-4.369000	-54.127056	-54.127056
823.293116	-1.456333	0.970889	31.311167	31.311167	-3.883556	-3.883556
823.604025	-30.825722	16.505111	18.932333	18.932333	71.117611	71.117611
823.914879	53.641611	54.855222	54.855222	54.855222	20.874111	20.874111
824.225677	32.039333	25.971278	-9.223444	-9.223444	1.699056	1.699056
824.536420	11.165222	25.728556	59.709667	59.709667	87.622722	87.622722
824.847107	46.845389	40.777333	18.932333	18.932333	49.272611	49.272611
825.157739	83.253722	84.467333	41.990944	41.990944	26.214000	26.214000
825.468315	41.748222	28.398500	76.942944	76.942944	8.980722	8.980722
825.778836	107.040500	80.341056	90.049944	90.049944	73.059389	73.059389
826.089301	47.573556	74.273000	18.446889	18.446889	119.176611	119.176611
826.399711	82.040111	65.049556	89.321778	89.321778	67.476778	67.476778
826.710065	34.952000	64.078667	66.505889	66.505889	65.292278	65.292278
827.020363	102.914222	44.660889	110.195889	110.195889	76.214778	76.214778
827.330606	-14.320611	22.087722	56.068833	56.068833	18.446889	18.446889
827.640794	16.262389	55.097944	42.961833	42.961833	28.398500	28.398500
827.950925	32.524778	77.428389	78.642000	78.642000	45.874500	45.874500
828.261001	100.244278	107.525944	96.603444	96.603444	126.943722	126.943722
828.571022	98.302500	13.349722	29.126667	29.126667	61.894167	61.894167
828.880986	24.029500	91.991722	31.311167	31.311167	85.923667	85.923667
829.190895	70.146722	-9.951611	42.233667	42.233667	77.428389	77.428389
829.500749	77.671111	38.835556	114.079444	114.079444	77.671111	77.671111
829.810546	67.234056	57.525167	50.243500	50.243500	70.874889	70.874889
830.120288	33.738389	107.768667	115.050333	115.050333	102.914222	102.914222
830.429974	106.312333	68.690389	84.467333	84.467333	113.594000	113.594000
830.739604	54.612500	72.816667	67.962222	67.962222	37.621944	37.621944
831.049179	86.409111	99.758833	121.603833	121.603833	71.845778	71.845778
831.358697	73.302111	86.651833	30.825722	30.825722	70.874889	70.874889
831.668160	41.505500	53.641611	82.768278	82.768278	70.632167	70.632167
831.977567	-10.194333	21.359556	69.904000	69.904000	61.408722	61.408722
832.286918	23.058611	93.448056	42.476389	42.476389	72.816667	72.816667
832.596213	59.952389	45.389056	16.262389	16.262389	56.311556	56.311556
832.905453	37.136500	20.145944	57.767889	57.767889	65.049556	65.049556
833.214636	29.612111	40.534611	49.029889	49.029889	17.476000	17.476000
833.523764	45.874500	-17.233278	85.923667	85.923667	-18.446889	-18.446889
833.832836	63.350500	79.127444	46.359944	46.359944	70.632167	70.632167
834.141851	27.427611	80.826500	82.040111	82.040111	60.195111	60.195111
834.450811	4.611722	-30.583000	-5.097167	-5.097167	33.738389	33.738389
834.759715	17.233278	39.078278	20.874111	20.874111	60.923278	60.923278
835.068563	21.116833	19.903222	30.825722	30.825722	73.302111	73.302111
835.377355	11.407944	76.942944	16.262389	16.262389	78.156556	78.156556
835.686091	74.273000	92.477167	77.913833	77.913833	71.845778	71.845778
835.994770	63.835944	92.962611	35.922889	35.922889	-8.980722	-8.980722
836.303394	40.291889	51.214389	100.972444	100.972444	47.573556	47.573556
836.611962	44.660889	83.496444	-40.291889	-40.291889	93.205333	93.205333
836.920473	36.893778	29.612111	61.166000	61.166000	73.302111	73.302111
837.228929	-54.127056	28.398500	0.485444	0.485444	35.680167	35.680167
837.537328	17.718722	4.369000	10.437056	10.437056	-10.194333	-10.194333
837.845672	165.536556	175.245444	92.719889	92.719889	130.341833	130.341833
838.153959	58.738778	56.311556	64.806833	64.806833	12.621556	12.621556
838.462190	117.963000	71.845778	104.613278	104.613278	62.136889	62.136889
838.770365	58.010611	111.409500	55.583389	55.583389	85.923667	85.923667
839.078483	62.136889	97.331611	69.418556	69.418556	83.981889	83.981889
839.386546	-3.640833	54.612500	42.476389	42.476389	91.020833	91.020833
839.694552	22.815889	42.233667	89.564500	89.564500	27.670333	27.670333
840.002502	55.097944	80.583778	80.583778	80.583778	69.661278	69.661278
840.310396	66.020444	93.933500	86.651833	86.651833	58.738778	58.738778
840.618233	39.806444	31.311167	9.466167	9.466167	8.252556	8.252556
840.926015	101.700611	119.904778	107.768667	107.768667	83.496444	83.496444
841.233739	62.379611	72.088500	64.806833	64.806833	23.544056	23.544056
841.541408	147.332389	120.632944	96.360722	96.360722	133.982667	133.982667
841.849020	4.611722	36.165611	28.883944	28.883944	37.379222	37.379222
842.156576	75.243889	1.213611	55.826111	55.826111	81.311944	81.311944
842.464076	55.826111	47.330833	64.321389	64.321389	40.049167	40.049167
842.771519	8.738000	81.554667	52.428000	52.428000	48.787167	48.787167
843.078906	34.223833	23.301333	-20.388667	-20.388667	42.719111	42.719111
843.386237	42.961833	83.011000	81.797389	81.797389	50.243500	50.243500
843.693511	35.437444	73.059389	11.165222	11.165222	52.428000	52.428000
844.000729	38.592833	-1.456333	56.797000	56.797000	11.893389	11.893389
844.307890	38.835556	88.593611	9.708889	9.708889	13.349722	13.349722
844.614995	60.195111	51.699833	82.040111	82.040111	73.544833	73.544833
844.922043	28.398500	-3.155389	18.689611	18.689611	63.593222	63.593222
845.229035	4.854444	52.185278	8.495278	8.495278	46.117222	46.117222
845.535970	30.097556	71.360333	16.747833	16.747833	72.573944	72.573944
845.842849	20.145944	-16.262389	21.359556	21.359556	67.476778	67.476778
846.149671	25.485833	32.767500	50.971667	50.971667	-7.281667	-7.281667
846.456437	67.719500	20.388667	89.564500	89.564500	95.632556	95.632556
846.763146	51.942556	61.651444	17.961444	17.961444	77.428389	77.428389
847.069799	71.360333	84.710056	30.097556	30.097556	70.146722	70.146722
847.376395	41.748222	42.961833	42.961833	42.961833	64.806833	64.806833
847.682934	85.438222	66.020444	91.506278	91.506278	89.079056	89.079056
847.989417	-34.709278	-12.864278	12.621556	12.621556	32.039333	32.039333
848.295843	70.874889	7.767111	53.884333	53.884333	79.370167	79.370167
848.602213	66.020444	74.515722	28.398500	28.398500	35.680167	35.680167
848.908526	60.680556	38.835556	15.776944	15.776944	29.126667	29.126667
849.214782	13.592444	14.806056	51.214389	51.214389	3.883556	3.883556
849.520981	-1.456333	3.398111	64.078667	64.078667	60.437833	60.437833
849.827124	33.252944	51.457111	69.661278	69.661278	108.496833	108.496833
850.133210	-23.301333	-52.428000	-29.369389	-29.369389	-58.496056	-58.496056
850.439239	34.466556	17.476000	25.971278	25.971278	57.525167	57.525167
850.745212	63.107778	65.535000	64.321389	64.321389	80.098333	80.098333
851.051128	108.739556	50.486222	63.835944	63.835944	101.457889	101.457889
851.356987	36.651056	-0.970889	40.291889	40.291889	34.223833	34.223833
851.662789	87.865444	102.428778	57.525167	57.525167	100.001556	100.001556
851.968534	55.097944	41.748222	69.661278	69.661278	69.661278	69.661278
852.274223	18.446889	37.864667	2.669944	2.669944	23.301333	23.301333
852.579854	26.214000	43.204556	34.709278	34.709278	86.894556	86.894556
852.885429	4.369000	26.214000	6.796222	6.796222	40.777333	40.777333
853.190947	-27.670333	85.195500	40.291889	40.291889	54.855222	54.855222
853.496408	67.234056	61.166000	35.680167	35.680167	67.234056	67.234056
853.801812	58.010611	94.418944	82.282833	82.282833	-3.883556	-3.883556
854.107160	57.767889	14.077889	1.941778	1.941778	40.777333	40.777333
854.412450	18.204167	48.544444	60.680556	60.680556	89.807222	89.807222
854.717683	62.622333	48.059000	45.631778	45.631778	67.476778	67.476778
855.022859	49.272611	45.631778	-7.767111	-7.767111	80.826500	80.826500
855.327979	23.544056	110.924056	62.379611	62.379611	62.379611	62.379611
855.633041	62.622333	91.749000	66.263167	66.263167	72.331222	72.331222
855.938046	105.098722	83.253722	48.059000	48.059000	100.244278	100.244278
856.242995	105.098722	106.312333	85.680944	85.680944	85.680944	85.680944
856.547886	70.389444	58.253333	-6.068056	-6.068056	-16.990556	-16.990556
856.852720	43.932722	29.369389	22.087722	22.087722	63.350500	63.350500
857.157497	-3.398111	113.108556	24.514944	24.514944	9.951611	9.951611
857.462217	69.904000	69.904000	48.059000	48.059000	43.204556	43.204556
857.766880	6.068056	42.476389	91.020833	91.020833	14.563333	14.563333
858.071486	63.835944	41.990944	58.981500	58.981500	-10.194333	-10.194333
858.376035	-4.611722	34.223833	48.787167	48.787167	48.787167	48.787167
858.680526	51.457111	63.593222	41.748222	41.748222	12.621556	12.621556
858.984961	49.515333	75.001167	116.263944	116.263944	83.496444	83.496444
859.289338	87.380000	74.030278	29.126667	29.126667	58.253333	58.253333
859.593658	78.156556	72.088500	51.457111	51.457111	110.924056	110.924056
859.897921	81.554667	114.322167	96.118000	96.118000	175.002722	175.002722
860.202126	127.914611	66.020444	21.116833	21.116833	66.020444	66.020444
860.506275	15.291500	-41.748222	34.709278	34.709278	16.505111	16.505111
860.810366	31.068444	45.631778	50.486222	50.486222	69.904000	69.904000
861.114399	81.554667	111.894944	45.146333	45.146333	45.146333	45.146333
861.418376	96.360722	87.865444	96.360722	96.360722	79.370167	79.370167
861.722295	49.515333	71.360333	81.069222	81.069222	75.001167	75.001167
862.026157	41.990944	39.563722	39.563722	39.563722	10.437056	10.437056
862.329961	18.689611	56.311556	74.515722	74.515722	85.438222	85.438222
862.633709	63.107778	9.708889	35.194722	35.194722	27.913056	27.913056
862.937398	47.573556	99.758833	111.894944	111.894944	133.739944	133.739944
863.241031	54.127056	-17.476000	26.214000	26.214000	34.709278	34.709278
863.544606	57.039722	43.690000	60.680556	60.680556	44.903611	44.903611
863.848124	27.913056	14.563333	40.049167	40.049167	2.427222	2.427222
864.151584	52.913444	55.340667	49.272611	49.272611	37.136500	37.136500
864.454987	81.069222	70.146722	7.038944	7.038944	38.592833	38.592833
864.758332	32.282056	-22.330444	-0.485444	-0.485444	21.359556	21.359556
865.061620	66.020444	67.234056	6.553500	6.553500	34.466556	34.466556
865.364850	43.447278	62.865056	54.369778	54.369778	34.952000	34.952000
865.668023	72.331222	44.418167	-4.126278	-4.126278	58.981500	58.981500
865.971138	90.049944	116.749389	119.176611	119.176611	48.787167	48.787167
866.274196	80.826500	94.176222	43.204556	43.204556	63.835944	63.835944
866.577196	-0.728167	19.903222	34.466556	34.466556	-39.563722	-39.563722
866.880139	63.350500	62.136889	82.768278	82.768278	102.186056	102.186056
867.183024	30.825722	40.534611	46.602667	46.602667	21.116833	21.116833
867.485852	65.049556	123.302889	52.913444	52.913444	83.253722	83.253722
867.788622	101.215167	-1.941778	38.107389	38.107389	68.447667	68.447667
868.091334	75.001167	33.738389	30.097556	30.097556	99.273389	99.273389
868.393989	51.457111	41.748222	38.107389	38.107389	24.757667	24.757667
868.696586	53.398889	47.330833	60.680556	60.680556	38.835556	38.835556
868.999125	50.243500	62.379611	91.506278	91.506278	59.952389	59.952389
869.301607	25.728556	57.282444	52.428000	52.428000	100.972444	100.972444
869.604031	83.253722	56.554278	105.098722	105.098722	88.108167	88.108167
869.906397	20.631389	-35.194722	23.058611	23.058611	1.213611	1.213611
870.208706	41.990944	-18.689611	31.068444	31.068444	41.990944	41.990944
870.510957	46.845389	-13.835167	21.359556	21.359556	32.282056	32.282056
870.813150	9.466167	15.534222	-6.310778	-6.310778	24.029500	24.029500
871.115285	112.623111	50.728944	85.923667	85.923667	79.855611	79.855611
871.417363	108.739556	63.835944	34.709278	34.709278	92.962611	92.962611
871.719382	78.884722	32.767500	55.826111	55.826111	50.971667	50.971667
872.021344	49.758056	95.875278	109.225000	109.225000	6.068056	6.068056
872.323248	77.185667	95.389833	77.185667	77.185667	45.631778	45.631778
872.625094	65.777722	-20.388667	40.291889	40.291889	34.223833	34.223833
872.926883	111.652222	70.389444	114.079444	114.079444	97.088889	97.088889
873.228613	56.311556	84.224611	47.816278	47.816278	89.079056	89.079056
873.530286	80.583778	93.933500	95.147111	95.147111	73.302111	73.302111
873.831900	18.689611	66.020444	38.107389	38.107389	124.273778	124.273778
874.133457	67.234056	46.602667	74.515722	74.515722	42.961833	42.961833
874.434956	95.632556	62.865056	7.038944	7.038944	112.623111	112.623111
874.736397	91.020833	69.175833	67.962222	67.962222	134.710833	134.710833
875.037780	41.748222	28.398500	57.525167	57.525167	39.321000	39.321000
875.339105	71.360333	53.156167	28.883944	28.883944	10.679778	10.679778
875.640371	-6.310778	-24.514944	-23.301333	-23.301333	19.175056	19.175056
875.941580	58.981500	18.932333	27.427611	27.427611	46.845389	46.845389
876.242731	2.912667	68.447667	73.302111	73.302111	58.738778	58.738778
876.543824	-21.845000	23.058611	30.340278	30.340278	87.380000	87.380000
876.844859	30.825722	22.330444	66.020444	66.020444	58.738778	58.738778
877.145835	36.893778	24.757667	16.262389	16.262389	6.553500	6.553500
877.446754	46.845389	46.845389	74.758444	74.758444	65.049556	65.049556
877.747614	43.932722	23.301333	80.341056	80.341056	57.282444	57.282444
878.048417	131.798167	96.603444	95.389833	95.389833	136.652611	136.652611
878.349161	19.417778	3.640833	40.049167	40.049167	37.621944	37.621944
878.649847	50.971667	21.845000	61.894167	61.894167	53.398889	53.398889
878.950475	-6.068056	36.408333	75.243889	75.243889	65.535000	65.535000
879.251045	91.749000	109.953167	74.758444	74.758444	75.972056	75.972056
879.551556	-2.912667	58.981500	16.505111	16.505111	20.145944	20.145944
879.852010	94.661667	117.720278	138.351667	138.351667	129.856389	129.856389
880.152405	34.223833	36.651056	17.233278	17.233278	73.059389	73.059389
880.452741	80.341056	3.883556	-13.107000	-13.107000	57.282444	57.282444
880.753020	30.825722	44.175444	4.126278	4.126278	39.321000	39.321000
881.053240	36.651056	46.359944	63.350500	63.350500	62.136889	62.136889
881.353402	40.777333	38.350111	90.535389	90.535389	49.272611	49.272611
881.653506	44.903611	64.321389	47.330833	47.330833	0.000000	0.000000
881.953552	15.776944	-23.058611	48.544444	48.544444	6.068056	6.068056
882.253539	69.661278	28.398500	4.126278	4.126278	57.525167	57.525167
882.553467	32.524778	32.524778	60.437833	60.437833	76.214778	76.214778
882.853338	59.224222	-24.514944	-19.660500	-19.660500	37.379222	37.379222
883.153150	40.291889	8.738000	35.437444	35.437444	46.359944	46.359944
883.452903	100.487000	50.728944	68.933111	68.933111	59.224222	59.224222
883.752598	11.165222	19.660500	40.291889	40.291889	52.428000	52.428000
884.052235	6.553500	13.835167	35.680167	35.680167	21.116833	21.116833
884.351814	48.059000	62.622333	80.826500	80.826500	50.486222	50.486222
884.651333	57.525167	11.407944	66.020444	66.020444	46.602667	46.602667
884.950795	40.777333	27.427611	33.495667	33.495667	38.350111	38.350111
885.250198	57.282444	53.641611	65.777722	65.777722	65.777722	65.777722
885.549542	44.660889	4.611722	26.456722	26.456722	13.107000	13.107000
885.848828	22.815889	31.311167	62.865056	62.865056	21.602278	21.602278
886.148055	48.059000	82.040111	45.631778	45.631778	49.272611	49.272611
886.447224	84.467333	106.312333	75.972056	75.972056	55.340667	55.340667
886.746335	47.330833	67.962222	6.068056	6.068056	64.321389	64.321389
887.045386	42.233667	17.961444	56.797000	56.797000	66.505889	66.505889
887.344379	74.515722	135.196278	140.050722	140.050722	113.351278	113.351278
887.643314	100.487000	27.670333	84.710056	84.710056	44.660889	44.660889
887.942190	21.359556	37.136500	-24.757667	-24.757667	1.941778	1.941778
888.241007	42.233667	48.301722	-1.456333	-1.456333	0.970889	0.970889
888.539766	58.496056	102.186056	65.777722	65.777722	29.369389	29.369389
888.838465	70.874889	33.252944	59.952389	59.952389	17.476000	17.476000
889.137107	81.554667	23.301333	62.136889	62.136889	62.136889	62.136889
889.435689	70.874889	61.166000	58.738778	58.738778	15.048778	15.048778
889.734213	78.156556	119.419333	86.651833	86.651833	84.224611	84.224611
890.032678	66.020444	85.438222	140.050722	140.050722	87.865444	87.865444
890.331085	64.806833	36.893778	-6.796222	-6.796222	97.574333	97.574333
