power (mW)	FWHM	peak value	peak location
54.660265	8.034347	1084.968333	567.196927
54.296810	10.474986	898.072222	567.546203
53.954509	10.472360	929.626111	567.546203
54.495799	11.517425	890.790556	567.546203
54.449827	9.078325	1063.123333	567.546203
54.448470	9.775430	997.588333	567.196927
55.264292	9.775430	997.588333	567.196927
55.694539	10.472360	905.353889	567.546203
55.781729	8.729706	980.597778	567.546203
55.557932	8.729706	980.597778	567.546203
55.157457	9.429261	990.306667	567.546203
54.726063	9.775430	1033.996667	567.546203
54.927554	9.775430	1033.996667	567.546203
54.341048	8.032337	1174.775556	567.196927
54.501515	10.474986	1036.423889	567.196927
54.787909	9.078325	922.344444	567.546203
54.923934	9.429261	1000.015556	567.546203
54.717302	9.429261	1000.015556	567.546203
55.021432	9.078325	1021.860556	567.546203
54.689642	10.822116	1082.541111	567.196927
54.014043	9.775430	876.227222	567.546203
53.594116	8.382092	1332.545000	566.498243
52.915263	8.729706	929.626111	567.196927
53.014123	9.079462	1000.015556	567.196927
52.345375	9.080599	893.217778	567.196927
52.899076	8.032337	1133.512778	567.196927
52.725041	8.032337	1133.512778	567.196927
53.715648	11.517425	941.762222	567.546203
52.999787	9.078325	1033.996667	567.546203
53.200329	9.078325	1033.996667	567.546203
53.289795	10.476298	912.635556	567.895435
54.153503	9.078325	922.344444	567.546203
54.338982	9.078325	1077.686667	567.546203
54.407271	9.426899	1089.822778	567.546203
53.740054	9.076049	1058.268889	567.546203
55.248279	10.123917	1043.705556	567.546203
55.496494	7.682624	1371.380556	567.196927
55.267534	8.379993	946.616667	567.895435
56.111388	9.080599	1235.456111	567.546203
55.707316	9.078325	1072.832222	567.895435
55.493438	8.381043	1279.146111	567.196927
55.277848	9.429261	1087.395556	567.546203
54.895121	9.078325	1070.405000	567.546203
54.826820	9.776655	1053.414444	567.546203
55.792223	6.985953	1378.662222	567.196927
55.975193	9.429261	1131.085556	567.546203
56.891557	7.682624	1490.314444	567.196927
55.868342	6.637071	1250.019444	567.196927
55.857666	12.216980	1097.104444	567.546203
55.667659	12.216980	1097.104444	567.546203
55.395183	9.076049	1138.367222	567.546203
55.044505	9.078325	1138.367222	567.196927
52.613067	8.729706	1140.794444	567.196927
52.808237	8.379993	1058.268889	567.546203
