power (mW)	FWHM	peak value	peak location
73.650881	7.342124	5419.987222	564.401146
74.344361	7.342124	5276.781111	564.401146
74.898079	7.691269	2373.823333	564.401146
75.684930	7.691269	4679.684444	564.401146
75.237499	7.342124	5512.221667	564.401146
75.151841	8.040370	3953.945000	564.750771
75.732981	7.691269	4985.514444	564.401146
75.279118	7.691269	3728.213333	564.750771
75.281964	7.691269	3966.081111	564.401146
75.110252	7.342124	5136.002222	564.401146
75.210602	8.040370	3415.101667	564.750771
75.084489	8.039367	3354.421111	564.750771
75.406721	7.691269	4123.850556	564.401146
74.735173	8.389428	3463.646111	564.401146
74.553542	8.040370	3281.604444	564.750771
74.988726	8.040370	3354.421111	564.750771
74.431603	8.039367	3288.886111	564.750771
75.025746	8.039367	3288.886111	564.750771
75.100706	7.690310	4228.221111	564.750771
74.864493	8.040370	4162.686111	564.750771
74.785115	8.040370	4012.198333	564.750771
75.611245	6.992064	4633.567222	564.750771
75.073046	7.340293	3737.922222	564.750771
73.305750	7.340293	3436.946667	565.100353
72.465884	8.039367	3128.689444	564.750771
74.895605	7.690310	3835.011111	564.750771
75.217866	6.992064	5305.907778	564.750771
75.818453	7.342124	4902.988889	564.401146
74.797909	7.340293	4364.145556	564.750771
74.262964	7.690310	3716.077222	564.750771
74.888545	8.039367	3366.557222	565.100353
75.762172	7.690310	4106.860000	565.100353
75.192860	7.340293	4274.338333	564.750771
75.657410	7.340293	3932.100000	564.750771
74.746215	7.340293	3667.532778	565.100353
75.654383	7.690310	4162.686111	564.750771
75.922272	7.340293	3475.782222	565.100353
75.589510	8.039367	3563.162222	564.750771
73.276553	7.689350	2764.606111	565.100353
74.324210	8.387334	2682.080556	565.100353
75.127598	7.689350	3468.500556	565.100353
75.642910	7.340293	3779.185000	565.100353
75.326610	7.340293	3711.222778	565.100353
74.118125	8.038364	3109.271667	565.100353
73.507224	7.689350	2784.023889	565.100353
71.723893	8.387334	2495.184444	565.449891
72.197441	8.737351	2427.222222	565.449891
70.697040	8.039367	3126.262222	565.100353
73.001231	7.689350	2992.765000	565.100353
73.001231	7.689350	2992.765000	565.100353
73.067454	8.388381	3551.026111	565.100353
73.304592	7.340293	3784.039444	565.100353
73.869509	7.340293	3864.137778	565.100353
