power (mW)	FWHM	peak value	peak location
34.875562	4.891392	2706.352778	566.498243
35.518518	6.290503	2165.082222	566.148836
35.512605	4.542291	3247.623333	566.498243
35.128737	4.542291	3701.513889	566.498243
35.445058	4.891392	3196.651667	566.498243
35.756637	4.891392	3196.651667	566.498243
34.893869	5.241105	3325.294444	566.148836
35.012150	5.590162	2820.432222	566.498243
35.201997	5.241105	2405.377222	566.498243
35.115387	5.241105	2691.789444	566.498243
34.852658	4.891392	2623.827222	566.498243
34.824424	5.590162	2097.120000	566.498243
34.670631	6.638731	1927.214444	566.148836
34.739711	4.891392	3024.318889	566.498243
35.266482	5.241105	2987.910556	566.498243
35.299873	4.541724	2487.902778	566.498243
34.719671	5.590861	2051.002778	566.148836
34.735122	4.542291	3327.721667	566.498243
34.953406	4.891392	2259.743889	566.498243
34.641830	5.241105	2551.010556	566.498243
34.791409	5.241105	2703.925556	566.148836
34.924011	4.891392	3068.008889	566.498243
34.868121	4.891392	3068.008889	566.498243
34.747907	5.590162	2150.518889	566.498243
34.987927	5.590162	2041.293889	566.498243
35.600361	5.590162	1691.773889	566.498243
35.603432	4.541724	2269.452778	566.847607
35.629561	5.590162	1793.717222	566.498243
35.414923	4.891392	2825.286667	566.498243
35.250466	5.241105	2131.101111	566.148836
35.543903	5.590162	2230.617222	566.498243
35.595609	5.590162	1946.632222	566.498243
35.183478	5.590162	1844.688889	566.498243
34.524494	5.590861	1820.416667	566.148836
34.414988	5.241105	2463.630556	566.498243
33.962997	5.241105	1963.622778	566.498243
33.112074	4.891392	1953.913889	566.498243
33.845086	5.590162	1679.637778	566.498243
34.422812	4.541724	2101.974444	566.847607
35.091341	4.541724	2101.974444	566.847607
34.798673	5.590162	1885.951667	566.498243
34.462675	5.590162	1885.951667	566.498243
34.159890	5.241105	3099.562778	566.148836
34.227438	4.891392	2296.152222	566.498243
34.317857	5.241105	2084.983889	566.498243
34.857806	5.240450	2060.711667	566.847607
34.577336	4.541724	2155.373333	566.498243
34.306224	5.939918	1820.416667	566.148836
34.433295	5.241105	1757.308889	566.498243
34.418411	4.891392	1980.613333	566.498243
34.743338	5.590162	1973.331667	566.498243
34.471645	6.289718	1822.843889	566.498243
34.494346	4.192098	2288.870556	566.847607
35.144761	5.241105	2089.838333	566.148836
