power (mW)	FWHM	peak value	peak location
57.803921	5.243723	29352.398333	564.750771
58.046036	5.593653	25150.876667	564.750771
58.186089	5.244377	29342.689444	564.750771
57.624775	4.893836	32570.895000	565.100353
57.224871	5.942885	18912.915556	565.100353
57.216687	5.243723	28080.533889	565.100353
57.703181	5.593653	21553.733333	564.750771
59.072871	5.243723	17718.722222	564.750771
59.153006	5.593653	19539.138889	564.401146
58.718183	5.593653	24667.859444	564.750771
60.029898	5.593653	24667.859444	564.750771
58.709981	5.593653	21985.778889	564.750771
58.999233	5.243723	24757.666667	565.100353
59.338473	5.593653	18973.596111	564.750771
59.526198	5.243723	21650.822222	564.750771
59.717550	5.593653	20558.572222	564.750771
59.990789	5.592955	24910.581667	565.100353
59.990393	5.942885	16973.565000	564.750771
60.874346	5.243723	26318.370556	565.100353
60.381537	5.243723	26866.922778	564.750771
60.123362	5.243723	30342.705000	564.750771
59.935468	5.243723	30342.705000	564.750771
59.956830	5.243723	25544.086667	565.100353
59.496821	5.243723	22895.987222	565.100353
59.274363	5.592955	21303.729444	565.100353
59.024052	5.243069	22740.645000	565.100353
58.842788	5.592955	22548.894444	565.100353
58.807502	5.942885	18832.817222	565.100353
58.310863	4.893836	20633.816111	565.100353
58.017991	4.893836	23553.764444	565.100353
58.105384	5.592955	21388.682222	565.100353
58.676978	5.243069	23114.437222	565.100353
58.810739	5.243069	22102.285556	565.100353
59.251837	5.592955	19541.566111	565.100353
58.750250	5.592955	21138.678333	565.100353
58.989687	5.243069	21578.005556	565.100353
60.100859	5.592955	22080.440556	565.100353
60.033909	5.592257	22497.922778	565.449891
59.658795	5.243069	18956.605556	565.449891
59.411355	5.592955	22789.189444	565.100353
59.263682	5.243069	21529.461111	565.100353
58.936473	5.243069	29468.905000	565.449891
59.356593	4.893226	29760.171667	565.449891
58.900035	5.592257	22493.068333	565.449891
58.819121	5.242414	28014.998889	565.449891
58.535981	5.243069	20031.865000	565.100353
59.640867	5.243069	21461.498889	565.449891
60.140563	5.942885	23085.310556	565.100353
60.372177	4.893226	21949.370556	565.449891
59.750758	5.592257	17136.188889	565.100353
59.223978	5.243069	22158.111667	565.100353
58.872555	5.243069	19488.167222	565.100353
59.014501	5.242414	21786.746667	565.449891
58.749894	5.592257	17733.285556	565.449891
