power (mW)	FWHM	peak value	peak location
75.470808	7.691269	5267.072222	564.401146
75.446040	8.739531	3628.697222	564.401146
74.787997	8.041373	4228.221111	564.401146
74.837770	8.041373	4543.760000	564.401146
74.109936	8.390474	4026.761667	564.401146
74.398395	8.390474	4135.986667	564.401146
74.487511	8.390474	4148.122778	564.401146
76.015358	8.041373	4245.211667	564.401146
75.814256	8.390474	3635.978889	564.750771
76.761714	8.390474	4097.151111	564.401146
76.874276	8.739531	3786.466667	564.401146
77.708816	8.040370	4213.657778	564.401146
77.764940	8.040370	4213.657778	564.401146
77.967939	8.390474	3898.118889	564.401146
76.338748	8.739531	4182.103889	564.401146
74.625079	8.389428	3805.884444	564.750771
74.620865	8.389428	3805.884444	564.750771
74.390985	8.389428	3674.814444	564.750771
74.861245	8.040370	3818.020556	564.750771
74.680394	9.088545	3470.927778	564.750771
74.485602	8.040370	3888.410000	564.750771
74.182230	8.389428	3405.392778	564.750771
73.331688	8.390474	4048.606667	564.750771
74.176514	8.738441	3643.260556	565.100353
74.718345	8.389428	3742.776667	564.750771
73.140889	8.389428	3487.918333	564.750771
74.021023	8.739531	3728.213333	564.750771
74.253202	9.088545	3449.082778	564.750771
74.014708	8.040370	3592.288889	564.750771
73.233625	8.739531	3250.050556	564.750771
72.321069	8.389428	3419.956111	564.750771
72.259235	8.389428	3330.148889	564.750771
73.875626	8.389428	3330.148889	564.750771
73.632563	8.738441	3276.750000	564.750771
73.652610	9.088545	3038.882222	564.750771
74.438250	8.738441	2859.267778	565.100353
73.886535	8.738441	2832.568333	565.100353
73.504169	8.737351	2881.112778	565.100353
73.298480	8.738441	2764.606111	565.100353
73.121639	8.738441	2803.441667	565.100353
73.951943	9.088545	2764.606111	564.750771
74.396102	9.088545	3206.360556	564.750771
74.177846	9.436337	2555.865000	565.100353
75.209263	9.087411	2699.071111	564.750771
75.872830	9.437515	2946.647778	564.750771
75.541437	9.088545	3191.797222	564.750771
74.523944	9.088545	3191.797222	564.750771
74.064312	9.437515	2495.184444	565.100353
76.081569	8.040370	3400.538333	564.750771
75.436296	8.039367	3092.281111	565.100353
75.125531	9.087411	2900.530556	564.750771
74.006512	9.087411	2946.647778	565.100353
74.192340	8.388381	3296.167778	565.100353
71.057829	8.389428	3492.772778	564.750771
