power (mW)	FWHM	peak value	peak location
35.332882	4.888333	13910.410556	568.244624
35.763305	4.888333	14473.526111	568.244624
35.553065	4.888333	14036.626111	568.244624
35.604931	5.237827	14813.337222	568.244624
36.171221	4.888333	13900.701667	568.244624
35.870736	4.539451	14674.985556	568.244624
35.098952	4.539451	14255.076111	568.244624
35.318578	5.237827	14204.104444	567.895435
35.576520	4.539451	16711.425000	568.244624
35.765991	4.539451	17636.196667	567.895435
36.060560	4.539451	15323.053889	568.244624
35.750327	4.539451	16075.492778	568.244624
35.664847	4.539451	16442.003333	568.244624
35.591779	4.539451	17344.930000	567.895435
35.337260	4.539451	15808.498333	567.895435
35.644256	4.539451	15167.711667	567.895435
35.751669	4.539451	14250.221667	568.244624
35.569258	4.539451	16898.321111	567.895435
35.179080	4.539451	17308.521667	567.895435
34.785693	4.539451	14255.076111	567.895435
34.910091	4.539451	14997.806111	567.895435
35.772461	4.190525	16364.332222	567.895435
35.929301	3.841074	18267.274444	567.895435
36.140124	4.190525	18065.815000	567.895435
36.170060	4.888945	16109.473889	567.895435
36.031747	4.888945	15167.711667	567.895435
35.938635	4.540019	15796.362222	567.895435
35.813294	4.190525	15306.063333	567.895435
35.295100	4.190525	17148.325000	567.895435
35.914985	4.190525	17832.801667	567.895435
35.576144	4.540019	15143.439444	567.895435
35.459374	4.540019	15143.439444	567.895435
35.231566	4.190525	16170.154444	567.895435
35.209246	4.888945	15638.592778	567.895435
35.465104	4.190525	16245.398333	567.895435
35.632803	4.540019	15602.184444	567.546203
35.644625	4.540019	16891.039444	567.546203
35.517945	4.190525	18874.080000	567.895435
35.948172	4.540019	17056.090556	567.895435
35.462042	4.540019	18619.221667	567.546203
35.216688	4.540019	16395.886111	567.546203
35.604378	4.540019	16395.886111	567.546203
35.634907	4.889557	19354.670000	567.546203
36.002754	4.540019	17247.841111	567.546203
35.529386	4.540588	15740.536111	567.546203
35.761387	4.540019	15451.696667	567.546203
35.285379	4.889557	15602.184444	567.546203
35.673447	4.540588	15997.821667	567.546203
35.698438	4.540588	15997.821667	567.546203
35.661043	4.191050	18939.615000	567.546203
35.709873	4.191050	14585.178333	567.546203
35.602291	4.889557	15378.880000	567.546203
34.983357	4.889557	13619.143889	567.546203
