power (mW)	FWHM	peak value	peak location
6.373277	9.430442	9172.472778	567.196927
6.315542	9.779104	8179.738889	566.847607
6.542104	9.779104	7388.464444	567.196927
6.413386	10.827539	6898.165556	566.847607
6.769415	10.827539	7021.953889	566.847607
6.335063	10.478921	6854.475556	566.498243
6.360793	11.176114	6085.046111	566.847607
6.225969	12.224635	5653.000556	566.498243
6.515085	13.620025	5034.058889	566.498243
6.361282	13.271626	4992.796111	539.114546
6.259249	14.318483	4565.605000	566.498243
6.050601	13.621729	4563.177778	566.498243
6.732852	16.059597	4089.869444	566.498243
6.323290	15.016941	4298.610556	539.467270
6.211418	16.411800	3728.213333	539.467270
6.227368	16.409744	3696.659444	566.148836
6.547077	17.105881	3643.260556	566.498243
6.493153	15.715399	3830.156667	566.498243
6.577931	16.411800	3674.814444	566.148836
6.576749	18.154307	3470.927778	566.498243
6.459747	16.759935	3466.073333	566.498243
6.915355	17.806305	3388.402222	566.498243
6.320723	18.504585	3371.411667	566.148836
6.366322	19.896152	3012.182778	566.498243
6.379539	19.896152	3116.553333	566.148836
6.393149	20.596837	2961.211111	566.148836
5.964112	21.292355	2842.277222	566.148836
6.290860	22.685708	2643.245000	566.148836
6.546059	24.078705	2616.545556	566.498243
6.633393	21.640048	2917.521111	566.148836
6.213895	24.072657	2652.953889	566.498243
6.537742	26.162602	2604.409444	566.498243
6.347169	24.426132	2531.592778	566.498243
6.667702	24.785954	2611.691111	566.148836
6.582274	24.776626	2597.127778	566.498243
6.797179	25.474546	2548.583333	566.498243
6.492990	22.682860	2548.583333	566.148836
6.522739	26.519759	2422.367778	566.148836
6.727421	26.519759	2356.832778	566.498243
6.794107	26.516428	2419.940556	566.498243
6.473203	24.423064	2534.020000	566.498243
6.372108	28.259114	2344.696667	566.498243
6.527260	31.038349	2186.927222	566.498243
6.789527	26.169178	2361.687222	566.498243
6.563282	26.169178	2436.931111	566.148836
6.727291	30.340877	2186.927222	566.498243
6.421624	29.658316	2213.626667	566.847607
6.586967	30.352326	2148.091667	566.498243
6.695959	32.796453	2126.246667	567.196927
6.882766	27.919009	2148.091667	566.498243
6.069914	34.166197	2150.518889	566.148836
6.385028	36.950508	1995.176667	566.498243
6.267547	32.792332	2007.312778	566.847607
6.722798	28.269763	2043.721111	566.847607
6.631305	34.867833	2038.866667	567.196927
6.628729	31.400901	2075.275000	566.498243
6.354554	38.339972	2002.458333	567.196927
6.033652	32.070413	2014.594444	566.847607
6.421648	37.657146	1881.097222	566.498243
6.464223	37.310833	1910.223889	566.847607
6.403564	43.554129	1924.787222	566.498243
6.434515	40.451526	1929.641667	566.847607
6.435229	38.008202	1890.806111	566.847607
6.277476	41.107436	1883.524444	566.847607
6.352095	35.920611	1900.515000	538.761779
6.391146	37.306134	1900.515000	566.498243
6.412942	36.595009	1844.688889	567.546203
6.243179	39.383076	1849.543333	567.196927
6.432636	43.910855	1791.290000	538.761779
6.296141	40.456617	1868.961111	566.847607
6.528609	39.407895	1832.552778	567.196927
6.464435	36.599625	1881.097222	566.498243
6.387131	39.388043	1825.271111	567.196927
6.623596	44.590918	1776.726667	567.196927
6.420900	39.061626	1805.853333	566.498243
6.352550	38.700695	1781.581111	540.172591
6.408729	36.969126	1878.670000	567.196927
6.409360	41.804136	1813.135000	567.196927
6.479835	42.171116	1742.745556	625.933707
6.357798	40.818194	1728.182222	566.498243
6.261320	39.407895	1728.182222	567.196927
6.301821	43.916395	1745.172778	566.847607
6.510712	48.407389	1747.600000	568.244624
6.702330	36.285307	1796.144444	566.847607
6.209484	44.568365	1786.435556	567.196927
6.231137	49.856918	1660.220000	566.847607
6.593335	47.735054	1735.463889	567.546203
6.263030	46.382331	1682.065000	566.498243
6.057373	47.371681	1626.238889	567.196927
6.584805	44.987459	1655.365556	566.148836
6.390788	47.674677	1648.083889	567.196927
6.167641	43.603547	1589.830556	567.546203
6.423124	42.208309	1650.511111	614.634149
6.753338	42.873528	1701.482778	567.196927
6.258299	42.878933	1640.802222	568.593768
6.355939	39.397973	1689.346667	566.847607
6.399096	55.997268	1599.539444	567.196927
6.435321	41.495021	1699.055556	566.847607
6.445353	45.995914	1614.102778	540.172591
6.583768	41.867391	1677.210556	568.244624
