power (mW)	FWHM	peak value	peak location
6.108745	8.036356	21119.260556	566.148836
6.578421	8.735168	16087.628889	566.148836
6.385639	8.735168	16318.215000	566.148836
6.404724	9.433980	13660.406667	566.148836
6.345832	9.085142	14432.263333	565.799385
6.467634	9.783997	12859.423333	565.799385
6.523751	10.482852	11456.488889	565.799385
6.398086	9.433980	13128.845000	565.799385
6.248479	10.482852	10701.622778	565.799385
6.278087	10.482852	10488.027222	565.799385
6.272851	10.831602	10131.225556	565.799385
6.466312	11.181706	9825.395556	565.449891
6.274617	11.880560	8801.107778	565.449891
6.244642	11.530413	8640.911111	565.799385
5.876854	11.879075	8616.638889	565.799385
6.176008	12.577841	7478.271667	538.761779
6.184115	12.229222	7798.665000	565.799385
6.358096	11.879075	7602.060000	565.799385
6.182371	12.577841	7094.770556	565.449891
6.016015	12.926416	6973.409444	565.799385
6.202463	13.625137	6407.866667	565.449891
5.959955	13.625137	6480.683333	565.799385
6.506670	14.322067	6203.980000	538.408970
6.797904	13.975371	6359.322222	565.449891
6.361837	13.973624	6250.097222	565.449891
6.468671	14.672301	6213.688889	565.449891
6.402308	14.670466	5985.530000	565.799385
6.230455	14.672301	5939.412778	565.449891
6.309423	14.670466	5514.648889	565.449891
6.550759	15.369055	5555.911667	565.799385
6.313716	15.020700	5412.705556	565.799385
5.929348	15.370977	5390.860556	565.449891
6.087058	16.415910	4898.134444	565.449891
6.003192	18.158857	4534.051111	566.148836
6.400121	17.462632	4288.901667	565.799385
6.404113	16.417964	4810.754444	565.449891
6.196327	16.417964	4728.228889	565.449891
5.819848	17.462632	4616.576667	565.449891
6.324746	17.812996	4330.164444	565.449891
6.442649	17.462632	4703.956667	565.449891
6.104317	18.509221	4502.497222	565.449891
6.494219	18.511538	4177.249444	565.799385
6.124070	16.417964	4902.988889	565.449891
6.169149	19.205270	3924.818333	565.799385
6.039828	20.251549	4026.761667	565.799385
6.340052	20.251549	4053.461111	565.799385
6.499469	19.903635	4004.916667	565.799385
6.209336	18.857267	4102.005556	565.449891
6.123480	20.254086	3864.137778	565.449891
6.311686	19.207675	3992.780556	565.449891
6.382213	20.601999	3803.457222	565.449891
6.393646	19.903635	3762.194444	565.449891
6.659592	19.906128	3871.419444	565.799385
6.248732	18.857267	3983.071667	565.799385
6.286091	21.995970	3441.801111	566.148836
6.044842	20.952493	3580.152778	565.799385
6.418655	21.300363	3417.528889	566.148836
6.467697	18.857267	4143.268333	565.449891
6.167128	21.648188	3638.406111	565.449891
6.017721	23.737190	3383.547778	565.449891
6.308287	21.998726	3366.557222	565.799385
6.166369	24.087770	3320.440000	565.799385
6.198682	21.300363	3492.772778	565.799385
6.289999	19.205270	3674.814444	565.449891
6.078157	21.995970	3487.918333	565.449891
6.432020	23.039048	3327.721667	565.799385
6.324416	23.041937	3364.130000	565.449891
6.438230	23.039048	3315.585556	565.799385
6.494928	21.645476	3524.326667	565.449891
6.299915	23.389585	3366.557222	565.799385
6.047683	23.041937	3169.952222	565.799385
6.644690	22.343707	3342.285000	565.449891
6.045046	23.044824	3361.702778	565.799385
6.479114	24.087770	3150.534444	565.799385
6.458844	24.438394	3092.281111	565.799385
6.205702	23.039048	3388.402222	565.799385
6.267584	25.831608	3043.736667	565.449891
6.404273	22.346507	3252.477778	565.449891
6.314832	24.782846	3055.872778	565.799385
6.232833	25.831608	2873.831111	565.799385
6.180099	25.136621	2927.230000	565.799385
6.424910	26.870383	3031.600556	566.148836
6.405712	24.438394	3070.436111	566.148836
5.931717	23.743141	3157.816111	565.799385
6.247781	28.269763	2674.798889	566.148836
6.567942	25.133469	2983.056111	565.449891
6.441722	26.175750	2990.337778	565.799385
6.171160	26.870383	3063.154444	565.799385
6.411816	25.484136	2878.685556	566.148836
6.389127	26.870383	2868.976667	566.148836
6.357751	27.217632	2873.831111	565.799385
6.739799	24.090790	2980.628889	565.799385
6.185569	24.435330	3111.698889	565.799385
6.117745	28.273310	2764.606111	565.799385
6.525431	28.613375	2764.606111	565.799385
6.324890	25.477744	2922.375556	566.148836
6.311874	26.870383	2961.211111	565.799385
6.369696	25.133469	2992.765000	565.449891
6.679265	27.227881	2774.315000	566.498243
6.443678	25.831608	3026.746111	565.799385
