power (mW)	FWHM	peak value	peak location
91.925776	7.336627	42449.689444	566.847607
92.414964	7.336627	42449.689444	566.847607
91.564230	6.986827	40517.620556	567.196927
91.629295	7.336627	38595.260556	566.847607
91.084384	8.035352	34740.831667	566.847607
91.008993	7.336627	36978.730556	566.847607
88.913937	8.735168	33010.222222	566.498243
89.323590	8.735168	33010.222222	566.498243
88.966021	7.685509	37403.494444	566.847607
90.351945	8.035352	34204.415556	566.847607
89.708564	7.685509	34401.020556	566.847607
89.831062	8.035352	37299.123889	566.847607
90.391986	8.035352	33388.868889	566.847607
89.305273	8.035352	32413.125556	566.847607
91.063412	7.685509	34398.593333	567.196927
91.792020	6.637071	38318.557222	567.196927
91.090298	8.386286	42160.850000	566.498243
89.779578	8.735168	32041.760556	566.847607
89.109305	8.386286	41415.692778	566.148836
87.644410	8.386286	38811.283333	566.498243
84.553001	8.386286	35291.811111	566.148836
85.366372	8.736260	36347.652778	566.148836
84.511424	9.086277	36568.530000	565.799385
84.428635	9.086277	34502.963889	566.148836
85.471664	8.736260	31850.010000	566.148836
83.021144	8.037360	30883.975556	566.148836
82.533498	7.687430	33617.027778	566.148836
81.921642	8.037360	33930.139444	566.148836
82.694733	7.338461	39740.909444	566.148836
81.139360	8.037360	37223.880000	566.148836
80.611458	8.037360	36160.756667	566.148836
79.935661	7.338461	39017.597222	566.148836
76.925545	6.988574	35483.561667	566.498243
74.350240	7.688391	31510.198889	566.148836
72.921603	8.037360	27124.208333	566.148836
70.086826	6.988574	26184.873333	566.498243
68.179669	7.687430	20798.867222	566.498243
66.122733	7.687430	19692.053889	566.498243
64.266729	7.687430	19422.632222	566.498243
67.417469	7.338461	22905.696111	566.148836
69.970457	7.337544	25857.198333	566.498243
73.195400	6.988574	28680.057778	566.148836
76.448929	6.988574	32228.656667	566.148836
78.615575	6.988574	31709.231111	566.498243
79.241587	6.638731	33782.078889	566.498243
81.270479	6.988574	31534.471111	566.498243
83.104527	6.638731	31243.204444	566.498243
83.633006	6.988574	32966.532222	566.148836
83.980855	6.637901	30255.325000	566.847607
85.273827	6.288932	28973.751667	566.498243
86.930848	6.288932	28973.751667	566.498243
87.271235	6.987701	29092.685556	566.498243
88.335283	6.987701	25828.071667	566.498243
87.612937	6.987701	25828.071667	566.498243
88.334322	6.637901	28976.178889	566.847607
91.054250	6.288932	28578.114444	566.498243
89.779217	5.939176	28808.700556	566.847607
88.751985	5.939176	28005.290000	566.498243
85.727149	5.590162	26997.992778	566.498243
84.162259	5.240450	32352.445000	566.847607
86.372811	5.939176	28449.471667	566.498243
84.327499	6.288932	26721.289444	566.498243
70.442288	5.939918	24726.112778	566.148836
68.565476	6.289718	21932.380000	566.148836
63.895056	6.639561	20551.290556	566.148836
60.667831	5.940660	18631.357778	566.148836
57.083054	6.289718	15563.348889	566.148836
53.822226	7.687430	12102.130000	565.799385
51.498756	7.338461	10711.331667	565.799385
44.969679	8.386286	8274.400556	565.799385
42.864858	9.085142	7924.880556	565.799385
32.487535	8.037360	7223.413333	565.799385
32.083996	8.037360	7223.413333	565.799385
31.562778	10.132791	6473.401667	565.449891
31.292796	8.387334	7102.052222	565.449891
31.177368	9.435159	6730.687222	565.449891
31.046674	8.038364	7223.413333	565.449891
30.433660	8.737351	7395.746111	565.449891
30.510937	8.738441	8133.621667	565.100353
30.365554	8.738441	8133.621667	565.100353
30.830517	6.641219	9116.646667	565.100353
30.287515	8.039367	8315.663333	565.100353
30.733206	8.738441	7614.196111	565.100353
31.513916	6.641219	11502.606111	565.100353
34.612196	6.292074	13456.520000	565.100353
46.320667	5.942144	19138.647222	565.100353
55.890961	5.942144	17803.675000	565.449891
56.229252	5.942144	19087.675556	565.449891
57.077693	5.942144	23286.770000	565.449891
57.432958	5.942144	22531.903889	565.100353
58.603060	5.942144	23257.643333	565.449891
59.528812	5.592955	24437.273333	565.100353
59.995666	5.592955	24437.273333	565.100353
60.840108	5.942144	25871.761667	565.100353
60.130731	5.942144	26529.538889	565.100353
59.727230	5.942144	25760.109444	565.100353
60.865120	6.641219	15128.876111	565.100353
60.862256	6.641219	15128.876111	565.100353
60.527603	5.592955	32512.641667	565.100353
60.750253	5.243069	39454.497222	565.100353
60.164335	5.243069	46811.407778	565.100353
61.064289	5.243069	53265.391667	565.100353
61.226665	5.942144	61267.943333	565.449891
59.671904	5.592955	63343.218333	565.100353
53.620560	5.592955	65039.846667	565.100353
