wavelength	94.971911

185.839229	580.106111
186.225573	533.988889
186.611889	580.106111
186.998176	679.622222
187.384436	543.697778
187.770668	572.824444
188.156871	623.796111
188.543046	580.106111
188.929193	652.922778
189.315312	650.495556
189.701403	657.777222
190.087466	616.514444
190.473500	616.514444
190.859506	652.922778
191.245484	638.359444
191.631434	592.242222
192.017355	718.457778
192.403248	691.758333
192.789113	623.796111
193.174949	682.049444
193.560757	691.758333
193.946537	740.302778
194.332288	747.584444
194.718011	745.157222
195.103705	660.204444
195.489371	667.486111
195.875009	771.856667
196.260618	750.011667
196.646199	737.875556
197.031751	752.438889
197.417275	650.495556
197.802771	723.312222
198.188237	701.467222
198.573676	635.932222
198.959085	696.612778
199.344466	718.457778
199.729819	723.312222
200.115143	759.720556
200.500438	747.584444
200.885705	662.631667
201.270943	667.486111
201.656152	728.166667
202.041333	662.631667
202.426485	669.913333
202.811608	660.204444
203.196703	708.748889
203.581769	696.612778
203.966806	638.359444
204.351814	638.359444
204.736794	682.049444
205.121745	655.350000
205.506667	684.476667
205.891560	640.786667
206.276424	623.796111
206.661260	706.321667
207.046066	696.612778
207.430844	735.448333
207.815593	771.856667
208.200313	691.758333
208.585003	716.030556
208.969665	706.321667
209.354299	713.603333
209.738903	682.049444
210.123478	703.894444
210.508024	655.350000
210.892541	684.476667
211.277029	706.321667
211.661488	691.758333
212.045918	686.903889
212.430318	655.350000
212.814690	696.612778
213.199033	614.087222
213.583346	728.166667
213.967631	708.748889
214.351886	609.232778
214.736112	650.495556
215.120309	682.049444
215.504476	682.049444
215.888615	655.350000
216.272724	706.321667
216.656804	669.913333
217.040854	713.603333
217.424876	645.641111
217.808868	737.875556
218.192830	686.903889
218.576764	631.077778
218.960668	626.223333
219.344543	665.058889
219.728388	660.204444
220.112204	645.641111
220.495991	621.368889
220.879748	679.622222
221.263476	696.612778
221.647174	662.631667
222.030843	645.641111
222.414482	677.195000
222.798092	691.758333
223.181672	665.058889
223.565223	652.922778
223.948744	701.467222
224.332236	694.185556
224.715698	706.321667
225.099131	706.321667
225.482534	699.040000
225.865907	665.058889
226.249251	672.340556
226.632565	667.486111
227.015850	699.040000
227.399104	674.767778
227.782329	657.777222
228.165525	633.505000
228.548691	648.068333
228.931827	701.467222
229.314933	733.021111
229.698009	655.350000
230.081056	614.087222
230.464073	742.730000
230.847060	657.777222
231.230017	657.777222
231.612944	648.068333
231.995842	703.894444
232.378709	752.438889
232.761547	733.021111
233.144355	735.448333
233.527133	716.030556
233.909881	669.913333
234.292599	643.213889
234.675287	696.612778
235.057945	626.223333
235.440574	652.922778
235.823172	606.805556
236.205740	665.058889
236.588278	638.359444
236.970786	708.748889
237.353264	745.157222
237.735712	694.185556
238.118130	674.767778
238.500517	752.438889
238.882875	723.312222
239.265202	648.068333
239.647499	716.030556
240.029767	720.885000
240.412003	679.622222
240.794210	672.340556
241.176387	643.213889
241.558533	689.331111
241.940649	684.476667
242.322734	703.894444
242.704790	725.739444
243.086815	655.350000
243.468810	652.922778
243.850774	597.096667
244.232709	752.438889
244.614612	699.040000
244.996486	696.612778
245.378329	711.176111
245.760142	699.040000
246.141924	665.058889
246.523676	781.565556
246.905397	667.486111
247.287088	679.622222
247.668748	708.748889
248.050378	718.457778
248.431978	684.476667
248.813547	665.058889
249.195085	752.438889
249.576593	679.622222
249.958070	669.913333
250.339517	657.777222
250.720933	728.166667
251.102318	643.213889
251.483673	674.767778
251.864997	689.331111
252.246291	679.622222
252.627554	699.040000
253.008786	631.077778
253.389987	696.612778
253.771158	696.612778
254.152298	645.641111
254.533408	706.321667
254.914486	699.040000
255.295534	696.612778
255.676551	679.622222
256.057537	725.739444
256.438492	716.030556
256.819417	645.641111
257.200310	740.302778
257.581173	621.368889
257.962005	733.021111
258.342806	660.204444
258.723576	716.030556
259.104315	662.631667
259.485023	657.777222
259.865700	614.087222
260.246347	691.758333
260.626962	657.777222
261.007546	626.223333
261.388099	648.068333
261.768621	638.359444
262.149112	725.739444
262.529573	699.040000
262.910002	650.495556
263.290399	667.486111
263.670766	643.213889
264.051102	684.476667
264.431406	703.894444
264.811680	652.922778
265.191922	720.885000
265.572133	735.448333
265.952313	674.767778
266.332461	691.758333
266.712578	716.030556
267.092665	686.903889
267.472719	703.894444
267.852743	708.748889
268.232735	638.359444
268.612696	672.340556
268.992626	648.068333
269.372524	672.340556
269.752391	708.748889
270.132226	703.894444
270.512030	626.223333
270.891803	597.096667
271.271545	655.350000
271.651255	643.213889
272.030933	645.641111
272.410580	696.612778
272.790196	703.894444
273.169780	718.457778
273.549332	747.584444
273.928853	686.903889
274.308343	657.777222
274.687800	662.631667
275.067227	720.885000
275.446622	762.147778
275.825985	708.748889
276.205316	694.185556
276.584616	635.932222
276.963885	682.049444
277.343121	669.913333
277.722326	665.058889
278.101499	699.040000
278.480641	691.758333
278.859751	686.903889
279.238829	686.903889
279.617875	730.593889
279.996890	665.058889
280.375873	767.002222
280.754824	711.176111
281.133743	657.777222
281.512631	708.748889
281.891486	689.331111
282.270310	667.486111
282.649102	677.195000
283.027862	694.185556
283.406590	720.885000
283.785286	614.087222
284.163950	657.777222
284.542582	728.166667
284.921183	696.612778
285.299751	677.195000
285.678287	694.185556
286.056792	716.030556
286.435264	652.922778
286.813704	633.505000
287.192112	643.213889
287.570489	730.593889
287.948833	703.894444
288.327145	694.185556
288.705425	674.767778
289.083672	716.030556
289.461888	686.903889
289.840071	718.457778
290.218223	652.922778
290.596342	631.077778
290.974429	711.176111
291.352483	708.748889
291.730506	691.758333
292.108496	706.321667
292.486454	689.331111
292.864379	708.748889
293.242273	682.049444
293.620134	682.049444
293.997963	686.903889
294.375759	650.495556
294.753523	684.476667
295.131255	711.176111
295.508954	645.641111
295.886621	740.302778
296.264255	832.537222
296.641857	737.875556
297.019427	711.176111
297.396964	677.195000
297.774469	699.040000
298.151941	669.913333
298.529380	759.720556
298.906788	791.274444
299.284162	745.157222
299.661504	689.331111
300.038814	657.777222
300.416090	713.603333
300.793335	699.040000
301.170546	694.185556
301.547726	691.758333
301.924872	742.730000
302.301986	657.777222
302.679067	759.720556
303.056115	689.331111
303.433131	733.021111
303.810114	660.204444
304.187064	631.077778
304.563982	667.486111
304.940866	684.476667
305.317718	725.739444
305.694537	696.612778
306.071324	706.321667
306.448077	786.420000
306.824798	677.195000
307.201486	689.331111
307.578141	669.913333
307.954763	648.068333
308.331352	706.321667
308.707908	645.641111
309.084432	643.213889
309.460922	711.176111
309.837379	643.213889
310.213804	635.932222
310.590195	706.321667
310.966554	628.650556
311.342879	665.058889
311.719172	752.438889
312.095431	728.166667
312.471657	703.894444
312.847851	665.058889
313.224011	691.758333
313.600138	701.467222
313.976232	655.350000
314.352292	645.641111
314.728320	667.486111
315.104314	728.166667
315.480275	648.068333
315.856203	679.622222
316.232098	742.730000
316.607960	694.185556
316.983788	635.932222
317.359583	701.467222
317.735345	665.058889
318.111073	723.312222
318.486769	740.302778
318.862430	750.011667
319.238059	662.631667
319.613654	694.185556
319.989216	701.467222
320.364744	638.359444
320.740239	660.204444
321.115701	771.856667
321.491129	682.049444
321.866524	672.340556
322.241885	660.204444
322.617213	716.030556
322.992507	669.913333
323.367768	718.457778
323.742995	665.058889
324.118189	638.359444
324.493349	640.786667
324.868475	640.786667
325.243568	686.903889
325.618628	686.903889
325.993654	684.476667
326.368646	628.650556
326.743604	626.223333
327.118529	677.195000
327.493421	774.283889
327.868278	720.885000
328.243102	655.350000
328.617892	686.903889
328.992648	665.058889
329.367371	652.922778
329.742060	652.922778
330.116715	716.030556
330.491336	665.058889
330.865924	730.593889
331.240477	754.866111
331.614997	718.457778
331.989483	711.176111
332.363935	657.777222
332.738354	640.786667
333.112738	657.777222
333.487088	691.758333
333.861405	701.467222
334.235687	694.185556
334.609936	572.824444
334.984150	662.631667
335.358331	708.748889
335.732478	762.147778
336.106590	723.312222
336.480669	669.913333
336.854713	672.340556
337.228724	667.486111
337.602700	665.058889
337.976642	735.448333
338.350550	665.058889
338.724424	660.204444
339.098264	694.185556
339.472070	718.457778
339.845842	684.476667
340.219579	711.176111
340.593282	665.058889
340.966951	735.448333
341.340586	667.486111
341.714186	817.973889
342.087752	730.593889
342.461284	728.166667
342.834782	631.077778
343.208245	708.748889
343.581674	694.185556
343.955069	682.049444
344.328429	674.767778
344.701755	679.622222
345.075047	652.922778
345.448304	611.660000
345.821526	640.786667
346.194715	694.185556
346.567869	716.030556
346.940988	614.087222
347.314073	691.758333
347.687123	699.040000
348.060139	650.495556
348.433121	660.204444
348.806067	733.021111
349.178980	640.786667
349.551858	725.739444
349.924701	621.368889
350.297509	725.739444
350.670283	725.739444
351.043023	667.486111
351.415727	665.058889
351.788397	689.331111
352.161033	650.495556
352.533633	686.903889
352.906199	633.505000
353.278731	652.922778
353.651227	720.885000
354.023689	737.875556
354.396116	716.030556
354.768508	701.467222
355.140866	737.875556
355.513188	643.213889
355.885476	689.331111
356.257729	643.213889
356.629947	696.612778
357.002130	725.739444
357.374279	669.913333
357.746392	730.593889
358.118471	686.903889
358.490514	730.593889
358.862523	767.002222
359.234497	708.748889
359.606436	711.176111
359.978339	684.476667
360.350208	672.340556
360.722042	669.913333
361.093841	703.894444
361.465604	669.913333
361.837333	584.960556
362.209026	677.195000
362.580685	706.321667
362.952308	657.777222
363.323896	652.922778
363.695449	686.903889
364.066967	657.777222
364.438450	723.312222
364.809897	594.669444
365.181310	631.077778
365.552687	740.302778
365.924028	706.321667
366.295335	708.748889
366.666606	684.476667
367.037842	716.030556
367.409043	657.777222
367.780209	677.195000
368.151339	725.739444
368.522434	650.495556
368.893493	645.641111
369.264517	769.429444
369.635506	696.612778
370.006459	650.495556
370.377377	720.885000
370.748260	696.612778
371.119107	730.593889
371.489918	747.584444
371.860694	735.448333
372.231435	686.903889
372.602140	699.040000
372.972809	699.040000
373.343444	638.359444
373.714042	701.467222
374.084605	689.331111
374.455132	735.448333
374.825624	716.030556
375.196080	648.068333
375.566501	662.631667
375.936885	730.593889
376.307235	723.312222
376.677548	716.030556
377.047826	708.748889
377.418068	691.758333
377.788275	706.321667
378.158445	701.467222
378.528580	703.894444
378.898679	691.758333
379.268743	691.758333
379.638770	711.176111
380.008762	689.331111
380.378718	706.321667
380.748638	648.068333
381.118523	665.058889
381.488371	667.486111
381.858184	643.213889
382.227960	662.631667
382.597701	652.922778
382.967406	694.185556
383.337075	696.612778
383.706708	723.312222
384.076304	665.058889
384.445865	713.603333
384.815390	769.429444
385.184879	665.058889
385.554332	609.232778
385.923749	754.866111
386.293130	747.584444
386.662474	635.932222
387.031783	640.786667
387.401055	703.894444
387.770292	723.312222
388.139492	737.875556
388.508656	728.166667
388.877784	689.331111
389.246876	716.030556
389.615931	667.486111
389.984950	716.030556
390.353933	730.593889
390.722880	696.612778
391.091791	737.875556
391.460665	660.204444
391.829503	691.758333
392.198304	682.049444
392.567070	652.922778
392.935799	684.476667
393.304491	674.767778
393.673148	677.195000
394.041768	628.650556
394.410351	650.495556
394.778898	733.021111
395.147409	711.176111
395.515883	759.720556
395.884321	791.274444
396.252722	611.660000
396.621087	672.340556
396.989415	650.495556
397.357707	728.166667
397.725962	730.593889
398.094181	682.049444
398.462363	720.885000
398.830508	684.476667
399.198617	742.730000
399.566689	662.631667
399.934725	713.603333
400.302724	643.213889
400.670687	716.030556
401.038612	684.476667
401.406501	677.195000
401.774354	662.631667
402.142169	682.049444
402.509948	723.312222
402.877690	679.622222
403.245396	750.011667
403.613064	767.002222
403.980696	716.030556
404.348291	684.476667
404.715849	706.321667
405.083370	716.030556
405.450855	706.321667
405.818303	696.612778
406.185713	706.321667
406.553087	679.622222
406.920424	696.612778
407.287724	708.748889
407.654987	733.021111
408.022213	750.011667
408.389402	677.195000
408.756554	686.903889
409.123669	711.176111
409.490748	686.903889
409.857789	730.593889
410.224793	672.340556
410.591760	657.777222
410.958689	689.331111
411.325582	701.467222
411.692438	793.701667
412.059256	767.002222
412.426038	718.457778
412.792782	682.049444
413.159489	674.767778
413.526159	674.767778
413.892792	769.429444
414.259387	648.068333
414.625945	667.486111
414.992466	720.885000
415.358950	742.730000
415.725396	616.514444
416.091806	684.476667
416.458177	674.767778
416.824512	677.195000
417.190809	691.758333
417.557069	667.486111
417.923291	677.195000
418.289476	701.467222
418.655624	762.147778
419.021734	633.505000
419.387807	733.021111
419.753843	752.438889
420.119841	742.730000
420.485801	711.176111
420.851724	686.903889
421.217609	682.049444
421.583457	696.612778
421.949268	725.739444
422.315041	728.166667
422.680776	665.058889
423.046474	708.748889
423.412134	672.340556
423.777756	662.631667
424.143341	745.157222
424.508888	669.913333
424.874398	635.932222
425.239870	725.739444
425.605304	694.185556
425.970701	657.777222
426.336059	703.894444
426.701381	648.068333
427.066664	750.011667
427.431909	779.138333
427.797117	662.631667
428.162287	713.603333
428.527419	723.312222
428.892514	720.885000
429.257570	633.505000
429.622589	682.049444
429.987570	691.758333
430.352513	716.030556
430.717418	752.438889
431.082285	694.185556
431.447114	677.195000
431.811905	674.767778
432.176659	672.340556
432.541374	737.875556
432.906051	742.730000
433.270691	665.058889
433.635292	701.467222
433.999855	655.350000
434.364380	725.739444
434.728867	718.457778
435.093317	703.894444
435.457728	728.166667
435.822100	718.457778
436.186435	660.204444
436.550732	711.176111
436.914990	604.378333
437.279210	677.195000
437.643392	723.312222
438.007536	669.913333
438.371642	643.213889
438.735709	689.331111
439.099739	694.185556
439.463730	728.166667
439.827682	679.622222
440.191597	650.495556
440.555473	679.622222
440.919310	662.631667
441.283110	711.176111
441.646871	696.612778
442.010593	669.913333
442.374278	667.486111
442.737924	689.331111
443.101531	648.068333
443.465100	611.660000
443.828631	723.312222
444.192123	669.913333
444.555577	626.223333
444.918992	667.486111
445.282368	662.631667
445.645707	703.894444
446.009006	626.223333
446.372267	672.340556
446.735490	650.495556
447.098674	638.359444
447.461819	660.204444
447.824926	648.068333
448.187994	660.204444
448.551023	684.476667
448.914014	677.195000
449.276966	628.650556
449.639880	703.894444
450.002754	645.641111
450.365590	665.058889
450.728388	648.068333
451.091146	740.302778
451.453866	737.875556
451.816547	684.476667
452.179189	669.913333
452.541793	769.429444
452.904357	667.486111
453.266883	706.321667
453.629370	679.622222
453.991818	742.730000
454.354227	662.631667
454.716597	682.049444
455.078929	657.777222
455.441221	699.040000
455.803475	706.321667
456.165689	762.147778
456.527865	703.894444
456.890001	750.011667
457.252099	745.157222
457.614157	694.185556
457.976177	701.467222
458.338157	628.650556
458.700099	677.195000
459.062001	798.556111
459.423864	767.002222
459.785688	665.058889
460.147473	650.495556
460.509219	667.486111
460.870926	686.903889
461.232593	665.058889
461.594221	754.866111
461.955810	740.302778
462.317360	689.331111
462.678871	686.903889
463.040342	662.631667
463.401775	655.350000
463.763167	626.223333
464.124521	730.593889
464.485835	638.359444
464.847110	740.302778
465.208346	645.641111
465.569542	723.312222
465.930699	720.885000
466.291817	638.359444
466.652895	686.903889
467.013933	648.068333
467.374933	757.293333
467.735892	686.903889
468.096813	706.321667
468.457694	708.748889
468.818535	672.340556
469.179337	616.514444
469.540099	730.593889
469.900822	633.505000
470.261506	655.350000
470.622149	745.157222
470.982753	757.293333
471.343318	720.885000
471.703843	737.875556
472.064328	696.612778
472.424774	747.584444
472.785180	655.350000
473.145546	657.777222
473.505873	597.096667
473.866160	633.505000
474.226407	669.913333
474.586615	679.622222
474.946783	745.157222
475.306911	723.312222
475.666999	718.457778
476.027047	611.660000
476.387056	674.767778
476.747025	728.166667
477.106954	662.631667
477.466843	667.486111
477.826692	706.321667
478.186502	718.457778
478.546271	691.758333
478.906001	682.049444
479.265690	752.438889
479.625340	648.068333
479.984950	713.603333
480.344519	682.049444
480.704049	643.213889
481.063539	657.777222
481.422989	674.767778
481.782398	701.467222
482.141768	725.739444
482.501098	691.758333
482.860387	689.331111
483.219637	677.195000
483.578846	750.011667
483.938015	750.011667
484.297144	682.049444
484.656233	682.049444
485.015282	660.204444
485.374291	679.622222
485.733259	740.302778
486.092187	735.448333
486.451075	745.157222
486.809923	798.556111
487.168730	735.448333
487.527497	696.612778
487.886224	716.030556
488.244910	669.913333
488.603557	682.049444
488.962162	662.631667
489.320728	672.340556
489.679253	665.058889
490.037738	696.612778
490.396182	643.213889
490.754586	815.546667
491.112950	708.748889
491.471273	677.195000
491.829555	684.476667
492.187798	631.077778
492.545999	711.176111
492.904160	669.913333
493.262281	672.340556
493.620361	711.176111
493.978401	609.232778
494.336400	686.903889
494.694358	672.340556
495.052276	706.321667
495.410153	643.213889
495.767990	669.913333
496.125786	665.058889
496.483541	730.593889
496.841255	679.622222
497.198929	701.467222
497.556563	764.575000
497.914155	752.438889
498.271707	706.321667
498.629218	740.302778
498.986688	674.767778
499.344118	767.002222
499.701506	665.058889
500.058854	713.603333
500.416161	725.739444
500.773428	694.185556
501.130653	720.885000
501.487837	716.030556
501.844981	648.068333
502.202084	672.340556
502.559146	643.213889
502.916167	733.021111
503.273146	694.185556
503.630085	655.350000
503.986984	701.467222
504.343841	682.049444
504.700657	570.397222
505.057432	623.796111
505.414166	718.457778
505.770858	679.622222
506.127510	669.913333
506.484121	711.176111
506.840691	677.195000
507.197219	720.885000
507.553707	699.040000
507.910153	677.195000
508.266558	764.575000
508.622922	657.777222
508.979245	686.903889
509.335527	720.885000
509.691767	679.622222
510.047966	696.612778
510.404124	701.467222
510.760241	679.622222
511.116316	652.922778
511.472350	759.720556
511.828343	682.049444
512.184295	699.040000
512.540205	725.739444
512.896073	665.058889
513.251901	708.748889
513.607687	703.894444
513.963431	713.603333
514.319135	677.195000
514.674796	706.321667
515.030417	674.767778
515.385996	699.040000
515.741533	665.058889
516.097029	706.321667
516.452483	669.913333
516.807896	699.040000
517.163268	677.195000
517.518597	655.350000
517.873886	650.495556
518.229132	689.331111
518.584337	616.514444
518.939501	689.331111
519.294623	655.350000
519.649703	665.058889
520.004742	706.321667
520.359738	754.866111
520.714694	652.922778
521.069607	723.312222
521.424479	699.040000
521.779309	759.720556
522.134097	696.612778
522.488844	674.767778
522.843549	694.185556
523.198211	774.283889
523.552833	674.767778
523.907412	682.049444
524.261949	662.631667
524.616445	718.457778
524.970899	682.049444
525.325311	655.350000
525.679681	665.058889
526.034009	660.204444
526.388295	776.711111
526.742539	650.495556
527.096742	839.818889
527.450902	711.176111
527.805020	711.176111
528.159096	742.730000
528.513131	723.312222
528.867123	728.166667
529.221073	703.894444
529.574981	764.575000
529.928847	745.157222
530.282671	1021.860556
530.636453	1199.047778
530.990193	1126.231111
531.343891	966.034444
531.697546	888.363333
532.051159	788.847222
532.404730	628.650556
532.758259	740.302778
533.111746	699.040000
533.465190	674.767778
533.818593	665.058889
534.171952	652.922778
534.525270	669.913333
534.878545	682.049444
535.231778	686.903889
535.584969	689.331111
535.938118	813.119444
536.291224	701.467222
536.644287	752.438889
536.997309	657.777222
537.350288	694.185556
537.703224	762.147778
538.056118	728.166667
538.408970	764.575000
538.761779	696.612778
539.114546	769.429444
539.467270	633.505000
539.819951	696.612778
540.172591	674.767778
540.525187	706.321667
540.877741	720.885000
541.230253	684.476667
541.582722	718.457778
541.935148	682.049444
542.287532	708.748889
542.639873	716.030556
542.992172	735.448333
543.344427	737.875556
543.696641	711.176111
544.048811	674.767778
544.400939	652.922778
544.753024	733.021111
545.105066	657.777222
545.457066	689.331111
545.809023	665.058889
546.160937	718.457778
546.512808	737.875556
546.864636	669.913333
547.216422	733.021111
547.568165	716.030556
547.919865	703.894444
548.271522	677.195000
548.623136	771.856667
548.974707	718.457778
549.326236	788.847222
549.677721	769.429444
550.029164	822.828333
550.380563	745.157222
550.731920	723.312222
551.083233	827.682778
551.434504	864.091111
551.785731	902.926667
552.136916	934.480556
552.488057	939.335000
552.839156	1026.715000
553.190211	1126.231111
553.541223	1097.104444
553.892193	1150.503333
554.243119	1296.136667
554.594002	1422.352222
554.944841	1604.393889
555.295638	1686.919444
555.646391	1810.707778
555.997101	2031.585000
556.347768	2271.880000
556.698392	2402.950000
557.048972	2754.897222
557.399510	2958.783889
557.750004	3444.228333
558.100454	3745.203889
558.450862	4259.775000
558.801226	4713.665556
559.151546	5310.762222
559.501824	5779.216111
559.852058	6347.186111
560.202248	6830.203333
560.552395	7638.468333
560.902499	8257.410000
561.252560	9257.425556
561.602576	9898.212222
561.952550	10677.350556
562.302480	11621.540000
562.652366	12575.438333
563.002209	13497.782778
563.352009	14915.280556
563.701765	16099.765000
564.051477	16830.358889
564.401146	17442.018889
564.750771	17721.149444
565.100353	17752.703333
565.449891	17495.417778
565.799385	16701.716111
566.148836	15679.855556
566.498243	14823.046111
566.847607	13483.219444
567.196927	12155.528889
567.546203	11238.038889
567.895435	10138.507222
568.244624	9456.457778
568.593768	8611.784444
568.942870	8237.992222
569.291927	7733.130000
569.640940	7301.084444
569.989910	7097.197778
570.338836	6660.297778
570.687718	6546.218333
571.036557	6102.036667
571.385351	5966.112222
571.734101	5888.441111
572.082808	5679.700000
572.431471	5672.418333
572.780089	5386.006111
573.128664	5296.198889
573.477195	5029.204444
573.825682	4677.257222
574.174125	4953.960556
574.522524	4847.162778
574.870879	4560.750556
575.219189	4439.389444
575.567456	4385.990556
575.915679	4252.493333
576.263858	4063.170000
576.611992	3895.691667
576.960083	3885.982778
577.308129	3679.668889
577.656131	3757.340000
578.004089	3582.580000
578.352003	3483.063889
578.699873	3398.111111
579.047698	3257.332222
579.395479	3211.215000
579.743217	3174.806667
580.090909	3065.581667
580.438558	3019.464444
580.786162	2992.765000
581.133722	2907.812222
581.481238	2851.986111
581.828709	2837.422778
582.176136	2589.846111
582.523519	2718.488889
582.870857	2674.798889
583.218151	2526.738333
583.565400	2478.193889
583.912605	2466.057778
584.259766	2427.222222
584.606882	2417.513333
584.953954	2470.912222
585.300981	2279.161667
585.647964	2334.987778
585.994902	2216.053889
586.341796	2254.889444
586.688646	2152.946111
587.035450	2167.509444
587.382210	2041.293889
587.728926	2065.566111
588.075597	2019.448889
588.422223	2034.012222
588.768805	2009.740000
589.115342	2026.730556
589.461835	1987.895000
589.808282	1883.524444
590.154685	1949.059444
590.501044	1924.787222
590.847357	1876.242778
591.193626	1830.125556
591.539851	1847.116111
591.886030	1842.261667
592.232165	1856.825000
592.578255	1856.825000
592.924300	1815.562222
593.270300	1793.717222
593.616255	1856.825000
593.962166	1706.337222
594.308032	1800.998889
594.653852	1769.445000
594.999628	1767.017778
595.345359	1665.074444
595.691045	1742.745556
596.036686	1781.581111
596.382283	1757.308889
596.727834	1716.046111
597.073340	1699.055556
597.418801	1776.726667
597.764217	1735.463889
598.109589	1711.191667
598.454915	1720.900556
598.800196	1781.581111
599.145432	1716.046111
599.490623	1684.492222
599.835768	1662.647222
600.180869	1682.065000
600.525925	1679.637778
600.870935	1686.919444
601.215900	1694.201111
601.560820	1745.172778
601.905695	1725.755000
602.250525	1665.074444
602.595309	1703.910000
602.940048	1633.520556
603.284742	1660.220000
603.629390	1657.792778
603.973994	1696.628333
604.318552	1660.220000
604.663064	1730.609444
605.007532	1618.957222
605.351954	1643.229444
605.696330	1648.083889
606.040661	1589.830556
606.384947	1669.928889
606.729188	1686.919444
607.073383	1614.102778
607.417532	1682.065000
607.761636	1621.384444
608.105695	1609.248333
608.449708	1635.947778
608.793676	1567.985556
609.137598	1611.675556
609.481474	1638.375000
609.825305	1633.520556
610.169091	1599.539444
610.512831	1550.995000
610.856525	1519.441111
611.200174	1589.830556
611.543777	1587.403333
611.887334	1631.093333
612.230846	1575.267222
612.574312	1648.083889
612.917733	1572.840000
613.261107	1626.238889
613.604436	1594.685000
613.947720	1521.868333
614.290957	1587.403333
614.634149	1548.567778
614.977295	1577.694444
615.320395	1541.286111
615.663450	1563.131111
616.006458	1643.229444
616.349421	1514.586667
616.692338	1570.412778
617.035209	1529.150000
617.378034	1543.713333
617.720813	1555.849444
618.063546	1584.976111
618.406234	1572.840000
618.748875	1560.703889
619.091471	1497.596111
619.434020	1536.431667
619.776524	1417.497778
620.118982	1504.877778
620.461393	1546.140556
620.803759	1504.877778
621.146078	1429.633889
621.488351	1485.460000
621.830579	1550.995000
622.172760	1534.004444
622.514895	1509.732222
622.856984	1507.305000
623.199027	1480.605556
623.541024	1558.276667
623.882974	1473.323889
624.224878	1514.586667
624.566737	1565.558333
624.908549	1502.450556
625.250314	1480.605556
625.592034	1412.643333
625.933707	1390.798333
626.275334	1417.497778
626.616914	1381.089444
626.958449	1347.108333
627.299937	1466.042222
627.641378	1492.741667
627.982774	1500.023333
628.324123	1383.516667
628.665425	1339.826667
629.006681	1271.864444
629.347891	1320.408889
629.689055	1334.972222
630.030171	1390.798333
630.371242	1339.826667
630.712266	1330.117778
631.053243	1322.836111
631.394174	1264.582778
631.735059	1233.028889
632.075897	1245.165000
632.416688	1300.991111
632.757433	1269.437222
633.098131	1206.329444
633.438783	1213.611111
633.779388	1281.573333
634.119946	1208.756667
634.460458	1291.282222
634.800923	1235.456111
635.141342	1157.785000
635.481713	1305.845556
635.822038	1194.193333
636.162317	1196.620556
636.502548	1196.620556
636.842733	1288.855000
637.182871	1182.057222
637.522963	1189.338889
637.863007	1143.221667
638.203005	1201.475000
638.542956	1135.940000
638.882860	1152.930556
639.222717	1179.630000
639.562528	1126.231111
639.902291	1131.085556
640.242008	1182.057222
640.581677	1072.832222
640.921300	1138.367222
641.260876	1043.705556
641.600405	1118.949444
641.939887	1123.803889
642.279322	1128.658333
642.618710	1182.057222
642.958050	1123.803889
643.297344	1135.940000
643.636591	1060.696111
643.975791	1111.667778
644.314944	1131.085556
644.654049	1089.822778
644.993108	1089.822778
645.332119	1106.813333
645.671083	1109.240556
646.010000	1099.531667
646.348870	1186.911667
646.687693	1116.522222
647.026468	1055.841667
647.365197	1038.851111
647.703878	1070.405000
648.042511	1162.639444
648.381098	1058.268889
648.719637	1009.724444
649.058129	1024.287778
649.396574	1104.386111
649.734971	1182.057222
650.073321	1029.142222
650.411624	1067.977778
650.749879	1031.569444
651.088087	1097.104444
651.426248	1036.423889
651.764361	1060.696111
652.102427	1087.395556
652.440445	1111.667778
652.778416	1128.658333
653.116339	1092.250000
653.454215	1143.221667
653.792043	1038.851111
654.129824	1055.841667
654.467557	1070.405000
654.805243	1097.104444
655.142881	1058.268889
655.480472	1126.231111
655.818015	1033.996667
656.155510	985.452222
656.492958	1019.433333
656.830358	1021.860556
657.167711	1099.531667
657.505015	1014.578889
657.842273	1058.268889
658.179482	1029.142222
658.516644	1031.569444
658.853758	1099.531667
659.190824	1048.560000
659.527842	1077.686667
659.864813	1089.822778
660.201736	1036.423889
660.538611	1070.405000
660.875438	1072.832222
661.212218	1043.705556
661.548950	1082.541111
661.885633	1111.667778
662.222269	1094.677222
662.558857	1080.113889
662.895397	1206.329444
663.231889	1021.860556
663.568334	1017.006111
663.904730	1036.423889
664.241078	1048.560000
664.577378	1070.405000
664.913631	1097.104444
665.249835	1055.841667
665.585991	1094.677222
665.922099	1058.268889
666.258159	1031.569444
666.594171	1116.522222
666.930135	1121.376667
667.266051	1094.677222
667.601919	1007.297222
667.937738	1097.104444
668.273510	1048.560000
668.609233	1194.193333
668.944908	1080.113889
669.280535	1097.104444
669.616114	1058.268889
669.951644	1126.231111
670.287126	1058.268889
670.622560	1140.794444
670.957946	1094.677222
671.293283	1067.977778
671.628572	1077.686667
671.963813	1128.658333
672.299006	1104.386111
672.634150	978.170556
672.969245	1082.541111
673.304293	1009.724444
673.639291	1189.338889
673.974242	1070.405000
674.309144	1131.085556
674.643998	1116.522222
674.978803	1123.803889
675.313560	1087.395556
675.648268	1135.940000
675.982928	1087.395556
676.317539	1189.338889
676.652101	1094.677222
676.986615	1123.803889
677.321081	1067.977778
677.655498	1116.522222
677.989866	1111.667778
678.324186	1138.367222
678.658457	1094.677222
678.992680	1152.930556
679.326854	1092.250000
679.660979	1128.658333
679.995055	1065.550556
680.329083	1055.841667
680.663062	1089.822778
680.996993	1169.921111
681.330874	1072.832222
681.664707	1084.968333
681.998491	1053.414444
682.332227	1070.405000
682.665913	1140.794444
682.999551	1050.987222
683.333140	1041.278333
683.666680	1063.123333
684.000171	1033.996667
684.333613	1123.803889
684.667006	975.743333
685.000351	1075.259444
685.333646	1121.376667
685.666893	1000.015556
686.000091	992.733889
686.333239	1099.531667
686.666339	1111.667778
686.999390	1111.667778
687.332391	1065.550556
687.665344	1106.813333
687.998247	1017.006111
688.331102	1009.724444
688.663907	1048.560000
688.996664	1029.142222
689.329371	1111.667778
689.662029	1007.297222
689.994638	1063.123333
690.327198	1041.278333
690.659708	1106.813333
690.992170	1063.123333
691.324582	1089.822778
691.656945	1036.423889
691.989259	970.888889
692.321524	1038.851111
692.653739	1055.841667
692.985905	1043.705556
693.318022	1087.395556
693.650089	987.879444
693.982107	995.161111
694.314076	1080.113889
694.645996	1104.386111
694.977866	1043.705556
695.309686	1017.006111
695.641458	1041.278333
695.973180	1043.705556
696.304852	1070.405000
696.636475	1082.541111
696.968049	1007.297222
697.299573	1046.132778
697.631047	1026.715000
697.962472	973.316111
698.293848	881.081667
698.625174	992.733889
698.956451	1004.870000
699.287678	963.607222
699.618855	995.161111
699.949983	929.626111
700.281061	995.161111
700.612089	1026.715000
700.943068	941.762222
701.273998	934.480556
701.604877	966.034444
701.935707	995.161111
702.266487	1075.259444
702.597218	1004.870000
702.927899	997.588333
703.258530	1007.297222
703.589111	958.752778
703.919642	983.025000
704.250124	1009.724444
704.580556	956.325556
704.910938	1004.870000
705.241270	995.161111
705.571553	963.607222
705.901785	956.325556
706.231968	915.062778
706.562101	987.879444
706.892184	927.198889
707.222216	924.771667
707.552199	927.198889
707.882132	907.781111
708.212016	1002.442778
708.541849	1036.423889
708.871632	924.771667
709.201365	963.607222
709.531048	905.353889
709.860681	956.325556
710.190264	890.790556
710.519796	941.762222
710.849279	849.527778
711.178712	910.208333
711.508094	919.917222
711.837427	808.265000
712.166709	873.800000
712.495941	895.645000
712.825123	929.626111
713.154255	936.907778
713.483336	883.508889
713.812367	912.635556
714.141348	847.100556
714.470279	949.043889
714.799159	871.372778
715.127990	893.217778
715.456769	842.246111
715.785499	917.490000
716.114178	842.246111
716.442807	800.983333
716.771385	885.936111
717.099914	859.236667
717.428391	934.480556
717.756819	861.663889
718.085195	890.790556
718.413522	885.936111
718.741798	868.945556
719.070023	859.236667
719.398198	854.382222
719.726323	817.973889
720.054397	902.926667
720.382420	851.955000
720.710393	878.654444
721.038316	868.945556
721.366188	876.227222
721.694009	856.809444
722.021779	873.800000
722.349499	861.663889
722.677169	769.429444
723.004787	832.537222
723.332355	883.508889
723.659873	759.720556
723.987339	757.293333
724.314755	885.936111
724.642120	902.926667
724.969435	825.255556
725.296699	851.955000
725.623911	842.246111
725.951074	757.293333
726.278185	883.508889
726.605245	796.128889
726.932255	898.072222
727.259214	822.828333
727.586122	893.217778
727.912979	847.100556
728.239785	851.955000
728.566540	849.527778
728.893245	856.809444
729.219898	822.828333
729.546501	842.246111
729.873052	800.983333
730.199552	798.556111
730.526002	791.274444
730.852400	832.537222
731.178748	771.856667
731.505044	793.701667
731.831290	849.527778
732.157484	832.537222
732.483627	769.429444
732.809719	854.382222
733.135760	830.110000
733.461750	767.002222
733.787688	791.274444
734.113576	839.818889
734.439412	876.227222
734.765197	849.527778
735.090931	796.128889
735.416614	771.856667
735.742245	842.246111
736.067825	830.110000
736.393354	800.983333
736.718832	813.119444
737.044258	771.856667
737.369633	762.147778
737.694957	750.011667
738.020229	798.556111
738.345450	793.701667
738.670619	813.119444
738.995738	822.828333
739.320804	817.973889
739.645820	791.274444
739.970784	866.518333
740.295696	788.847222
740.620557	805.837778
740.945366	757.293333
741.270124	851.955000
741.594831	786.420000
741.919486	723.312222
742.244089	725.739444
742.568641	813.119444
742.893141	733.021111
743.217590	677.195000
743.541987	786.420000
743.866332	825.255556
744.190626	810.692222
744.514868	779.138333
744.839058	723.312222
745.163197	781.565556
745.487284	798.556111
745.811320	868.945556
746.135303	805.837778
746.459235	827.682778
746.783115	754.866111
747.106944	718.457778
747.430720	805.837778
747.754445	764.575000
748.078118	813.119444
748.401739	754.866111
748.725308	771.856667
749.048825	781.565556
749.372291	752.438889
749.695705	793.701667
750.019066	771.856667
750.342376	776.711111
750.665634	757.293333
750.988840	764.575000
751.311994	798.556111
751.635096	730.593889
751.958146	747.584444
752.281143	864.091111
752.604089	800.983333
752.926983	759.720556
753.249825	796.128889
753.572615	720.885000
753.895352	737.875556
754.218038	798.556111
754.540671	791.274444
754.863252	747.584444
755.185781	665.058889
755.508258	699.040000
755.830683	750.011667
756.153056	684.476667
756.475376	708.748889
756.797644	699.040000
757.119860	725.739444
757.442023	718.457778
757.764135	650.495556
758.086194	728.166667
758.408201	735.448333
758.730155	805.837778
759.052057	767.002222
759.373907	711.176111
759.695704	723.312222
760.017449	745.157222
760.339142	800.983333
760.660782	764.575000
760.982370	730.593889
761.303905	718.457778
761.625388	730.593889
761.946818	752.438889
762.268196	754.866111
762.589521	718.457778
762.910794	752.438889
763.232015	757.293333
763.553182	752.438889
763.874298	783.992778
764.195360	764.575000
764.516370	740.302778
764.837328	720.885000
765.158233	742.730000
765.479085	725.739444
765.799885	757.293333
766.120631	750.011667
766.441326	720.885000
766.761967	682.049444
767.082556	674.767778
767.403092	750.011667
767.723575	733.021111
768.044006	781.565556
768.364384	798.556111
768.684709	781.565556
769.004981	725.739444
769.325200	737.875556
769.645367	740.302778
769.965481	810.692222
770.285541	725.739444
770.605549	759.720556
770.925504	652.922778
771.245407	725.739444
771.565256	720.885000
771.885052	711.176111
772.204795	750.011667
772.524486	754.866111
772.844123	820.401111
773.163708	660.204444
773.483239	665.058889
773.802717	779.138333
774.122142	747.584444
774.441515	730.593889
774.760834	757.293333
775.080100	810.692222
775.399313	771.856667
775.718473	752.438889
776.037579	682.049444
776.356633	626.223333
776.675633	747.584444
776.994580	711.176111
777.313474	682.049444
777.632315	655.350000
777.951103	767.002222
778.269837	740.302778
778.588518	672.340556
778.907146	694.185556
779.225720	667.486111
779.544242	735.448333
779.862709	706.321667
780.181124	810.692222
780.499485	733.021111
780.817793	718.457778
781.136047	657.777222
781.454248	694.185556
781.772396	713.603333
782.090490	716.030556
782.408531	711.176111
782.726518	713.603333
783.044452	720.885000
783.362333	725.739444
783.680159	725.739444
783.997933	711.176111
784.315653	716.030556
784.633319	725.739444
784.950932	796.128889
785.268491	723.312222
785.585996	750.011667
785.903448	703.894444
786.220847	711.176111
786.538191	691.758333
786.855482	706.321667
787.172720	711.176111
787.489903	723.312222
787.807033	694.185556
788.124110	701.467222
788.441132	633.505000
788.758101	764.575000
789.075016	696.612778
789.391877	686.903889
789.708685	648.068333
790.025438	708.748889
790.342138	757.293333
790.658784	674.767778
790.975376	733.021111
791.291915	733.021111
791.608399	735.448333
791.924830	713.603333
792.241206	691.758333
792.557529	723.312222
792.873798	689.331111
793.190012	686.903889
793.506173	754.866111
793.822280	691.758333
794.138333	759.720556
794.454332	694.185556
794.770277	665.058889
795.086167	708.748889
795.402004	708.748889
795.717787	699.040000
796.033515	672.340556
796.349190	786.420000
796.664810	703.894444
796.980376	752.438889
797.295888	699.040000
797.611346	728.166667
797.926750	686.903889
798.242099	696.612778
798.557394	696.612778
798.872635	701.467222
799.187822	689.331111
799.502955	648.068333
799.818033	774.283889
800.133057	713.603333
800.448027	696.612778
800.762942	750.011667
801.077803	740.302778
801.392610	640.786667
801.707362	694.185556
802.022060	640.786667
802.336703	725.739444
802.651292	720.885000
802.965827	662.631667
803.280307	742.730000
803.594733	677.195000
803.909104	660.204444
804.223421	667.486111
804.537684	684.476667
804.851891	655.350000
805.166045	662.631667
805.480143	696.612778
805.794188	655.350000
806.108177	684.476667
806.422112	752.438889
806.735993	701.467222
807.049818	682.049444
807.363590	682.049444
807.677306	708.748889
807.990968	737.875556
808.304575	703.894444
808.618128	762.147778
808.931625	708.748889
809.245068	703.894444
809.558457	694.185556
809.871790	660.204444
810.185069	703.894444
810.498293	635.932222
810.811462	699.040000
811.124576	662.631667
811.437636	674.767778
811.750640	648.068333
812.063590	667.486111
812.376485	737.875556
812.689325	657.777222
813.002110	750.011667
813.314840	767.002222
813.627516	866.518333
813.940136	691.758333
814.252701	711.176111
814.565212	674.767778
814.877667	774.283889
815.190067	723.312222
815.502413	718.457778
815.814703	703.894444
816.126938	669.913333
816.439118	713.603333
816.751243	730.593889
817.063313	699.040000
817.375328	674.767778
817.687287	689.331111
817.999192	723.312222
818.311041	733.021111
818.622835	752.438889
818.934574	754.866111
819.246258	689.331111
819.557887	669.913333
819.869460	733.021111
820.180978	626.223333
820.492441	689.331111
820.803848	742.730000
821.115200	699.040000
821.426497	657.777222
821.737739	631.077778
822.048925	631.077778
822.360056	694.185556
822.671131	684.476667
822.982151	701.467222
823.293116	662.631667
823.604025	730.593889
823.914879	708.748889
824.225677	631.077778
824.536420	733.021111
824.847107	645.641111
825.157739	679.622222
825.468315	645.641111
825.778836	674.767778
826.089301	730.593889
826.399711	767.002222
826.710065	696.612778
827.020363	699.040000
827.330606	696.612778
827.640794	747.584444
827.950925	733.021111
828.261001	767.002222
828.571022	703.894444
828.880986	686.903889
829.190895	742.730000
829.500749	699.040000
829.810546	677.195000
830.120288	657.777222
830.429974	711.176111
830.739604	667.486111
831.049179	718.457778
831.358697	686.903889
831.668160	665.058889
831.977567	640.786667
832.286918	645.641111
832.596213	667.486111
832.905453	745.157222
833.214636	674.767778
833.523764	783.992778
833.832836	711.176111
834.141851	686.903889
834.450811	626.223333
834.759715	648.068333
835.068563	684.476667
835.377355	674.767778
835.686091	699.040000
835.994770	699.040000
836.303394	674.767778
836.611962	648.068333
836.920473	674.767778
837.228929	691.758333
837.537328	742.730000
837.845672	706.321667
838.153959	677.195000
838.462190	718.457778
838.770365	701.467222
839.078483	713.603333
839.386546	691.758333
839.694552	701.467222
840.002502	742.730000
840.310396	771.856667
840.618233	747.584444
840.926015	720.885000
841.233739	737.875556
841.541408	691.758333
841.849020	757.293333
842.156576	672.340556
842.464076	708.748889
842.771519	713.603333
843.078906	657.777222
843.386237	701.467222
843.693511	701.467222
844.000729	696.612778
844.307890	609.232778
844.614995	691.758333
844.922043	742.730000
845.229035	662.631667
845.535970	621.368889
845.842849	660.204444
846.149671	718.457778
846.456437	669.913333
846.763146	694.185556
847.069799	655.350000
847.376395	618.941667
847.682934	750.011667
847.989417	674.767778
848.295843	747.584444
848.602213	716.030556
848.908526	665.058889
849.214782	638.359444
849.520981	740.302778
849.827124	660.204444
850.133210	735.448333
850.439239	682.049444
850.745212	694.185556
851.051128	718.457778
851.356987	650.495556
851.662789	665.058889
851.968534	750.011667
852.274223	723.312222
852.579854	725.739444
852.885429	718.457778
853.190947	733.021111
853.496408	648.068333
853.801812	679.622222
854.107160	616.514444
854.412450	665.058889
854.717683	677.195000
855.022859	733.021111
855.327979	742.730000
855.633041	754.866111
855.938046	689.331111
856.242995	713.603333
856.547886	740.302778
856.852720	631.077778
857.157497	684.476667
857.462217	730.593889
857.766880	682.049444
858.071486	662.631667
858.376035	669.913333
858.680526	616.514444
858.984961	767.002222
859.289338	752.438889
859.593658	684.476667
859.897921	735.448333
860.202126	669.913333
860.506275	665.058889
860.810366	725.739444
861.114399	655.350000
861.418376	686.903889
861.722295	706.321667
862.026157	691.758333
862.329961	601.951111
862.633709	694.185556
862.937398	665.058889
863.241031	660.204444
863.544606	616.514444
863.848124	643.213889
864.151584	752.438889
864.454987	682.049444
864.758332	694.185556
865.061620	660.204444
865.364850	662.631667
865.668023	686.903889
865.971138	699.040000
866.274196	655.350000
866.577196	720.885000
866.880139	694.185556
867.183024	686.903889
867.485852	669.913333
867.788622	701.467222
868.091334	711.176111
868.393989	696.612778
868.696586	764.575000
868.999125	677.195000
869.301607	665.058889
869.604031	665.058889
869.906397	640.786667
870.208706	682.049444
870.510957	643.213889
870.813150	694.185556
871.115285	694.185556
871.417363	686.903889
871.719382	679.622222
872.021344	699.040000
872.323248	616.514444
872.625094	725.739444
872.926883	701.467222
873.228613	686.903889
873.530286	648.068333
873.831900	657.777222
874.133457	662.631667
874.434956	682.049444
874.736397	691.758333
875.037780	674.767778
875.339105	745.157222
875.640371	703.894444
875.941580	694.185556
876.242731	674.767778
876.543824	691.758333
876.844859	735.448333
877.145835	735.448333
877.446754	672.340556
877.747614	655.350000
878.048417	689.331111
878.349161	686.903889
878.649847	689.331111
878.950475	745.157222
879.251045	718.457778
879.551556	696.612778
879.852010	708.748889
880.152405	643.213889
880.452741	674.767778
880.753020	716.030556
881.053240	728.166667
881.353402	682.049444
881.653506	655.350000
881.953552	779.138333
882.253539	735.448333
882.553467	572.824444
882.853338	696.612778
883.153150	696.612778
883.452903	703.894444
883.752598	711.176111
884.052235	747.584444
884.351814	628.650556
884.651333	720.885000
884.950795	735.448333
885.250198	677.195000
885.549542	689.331111
885.848828	706.321667
886.148055	643.213889
886.447224	745.157222
886.746335	694.185556
887.045386	648.068333
887.344379	708.748889
887.643314	669.913333
887.942190	720.885000
888.241007	677.195000
888.539766	733.021111
888.838465	771.856667
889.137107	720.885000
889.435689	711.176111
889.734213	682.049444
890.032678	677.195000
890.331085	776.711111
