wavelength	92.686492	92.958193

185.839229	577.678889	521.852778
186.225573	587.387778	538.843333
186.611889	592.242222	631.077778
186.998176	584.960556	665.058889
187.384436	567.970000	597.096667
187.770668	536.416111	592.242222
188.156871	669.913333	567.970000
188.543046	597.096667	611.660000
188.929193	655.350000	609.232778
189.315312	592.242222	599.523889
189.701403	694.185556	611.660000
190.087466	618.941667	662.631667
190.473500	686.903889	740.302778
190.859506	660.204444	650.495556
191.245484	716.030556	694.185556
191.631434	718.457778	674.767778
192.017355	691.758333	635.932222
192.403248	618.941667	694.185556
192.789113	735.448333	699.040000
193.174949	689.331111	652.922778
193.560757	706.321667	616.514444
193.946537	657.777222	708.748889
194.332288	648.068333	665.058889
194.718011	706.321667	737.875556
195.103705	711.176111	728.166667
195.489371	645.641111	699.040000
195.875009	701.467222	623.796111
196.260618	740.302778	728.166667
196.646199	701.467222	614.087222
197.031751	742.730000	638.359444
197.417275	684.476667	660.204444
197.802771	655.350000	701.467222
198.188237	764.575000	682.049444
198.573676	805.837778	667.486111
198.959085	665.058889	672.340556
199.344466	691.758333	660.204444
199.729819	657.777222	699.040000
200.115143	713.603333	679.622222
200.500438	694.185556	720.885000
200.885705	640.786667	650.495556
201.270943	689.331111	657.777222
201.656152	686.903889	694.185556
202.041333	720.885000	771.856667
202.426485	650.495556	701.467222
202.811608	667.486111	655.350000
203.196703	626.223333	650.495556
203.581769	633.505000	669.913333
203.966806	667.486111	674.767778
204.351814	677.195000	669.913333
204.736794	645.641111	657.777222
205.121745	686.903889	718.457778
205.506667	713.603333	662.631667
205.891560	694.185556	725.739444
206.276424	618.941667	740.302778
206.661260	713.603333	764.575000
207.046066	645.641111	682.049444
207.430844	635.932222	728.166667
207.815593	679.622222	711.176111
208.200313	672.340556	667.486111
208.585003	665.058889	665.058889
208.969665	650.495556	597.096667
209.354299	677.195000	645.641111
209.738903	652.922778	640.786667
210.123478	711.176111	665.058889
210.508024	684.476667	684.476667
210.892541	662.631667	674.767778
211.277029	652.922778	674.767778
211.661488	701.467222	674.767778
212.045918	711.176111	643.213889
212.430318	660.204444	716.030556
212.814690	674.767778	679.622222
213.199033	694.185556	754.866111
213.583346	682.049444	691.758333
213.967631	669.913333	626.223333
214.351886	618.941667	667.486111
214.736112	628.650556	674.767778
215.120309	696.612778	648.068333
215.504476	665.058889	645.641111
215.888615	580.106111	737.875556
216.272724	657.777222	665.058889
216.656804	643.213889	616.514444
217.040854	638.359444	684.476667
217.424876	648.068333	633.505000
217.808868	655.350000	706.321667
218.192830	742.730000	723.312222
218.576764	621.368889	713.603333
218.960668	701.467222	609.232778
219.344543	660.204444	682.049444
219.728388	631.077778	716.030556
220.112204	718.457778	665.058889
220.495991	740.302778	684.476667
220.879748	708.748889	679.622222
221.263476	657.777222	628.650556
221.647174	631.077778	638.359444
222.030843	730.593889	691.758333
222.414482	672.340556	672.340556
222.798092	696.612778	665.058889
223.181672	723.312222	655.350000
223.565223	674.767778	686.903889
223.948744	652.922778	657.777222
224.332236	662.631667	672.340556
224.715698	703.894444	733.021111
225.099131	645.641111	655.350000
225.482534	718.457778	606.805556
225.865907	679.622222	648.068333
226.249251	745.157222	716.030556
226.632565	791.274444	643.213889
227.015850	718.457778	614.087222
227.399104	696.612778	672.340556
227.782329	631.077778	701.467222
228.165525	662.631667	691.758333
228.548691	701.467222	611.660000
228.931827	616.514444	657.777222
229.314933	648.068333	643.213889
229.698009	669.913333	674.767778
230.081056	682.049444	716.030556
230.464073	643.213889	750.011667
230.847060	677.195000	604.378333
231.230017	718.457778	677.195000
231.612944	606.805556	645.641111
231.995842	628.650556	643.213889
232.378709	640.786667	684.476667
232.761547	767.002222	703.894444
233.144355	665.058889	672.340556
233.527133	759.720556	737.875556
233.909881	737.875556	662.631667
234.292599	701.467222	703.894444
234.675287	686.903889	674.767778
235.057945	711.176111	684.476667
235.440574	730.593889	716.030556
235.823172	706.321667	701.467222
236.205740	703.894444	825.255556
236.588278	652.922778	655.350000
236.970786	633.505000	684.476667
237.353264	635.932222	657.777222
237.735712	652.922778	604.378333
238.118130	599.523889	716.030556
238.500517	703.894444	699.040000
238.882875	713.603333	635.932222
239.265202	669.913333	674.767778
239.647499	601.951111	696.612778
240.029767	677.195000	638.359444
240.412003	672.340556	735.448333
240.794210	711.176111	691.758333
241.176387	694.185556	682.049444
241.558533	645.641111	754.866111
241.940649	662.631667	682.049444
242.322734	684.476667	677.195000
242.704790	689.331111	691.758333
243.086815	723.312222	684.476667
243.468810	652.922778	655.350000
243.850774	691.758333	750.011667
244.232709	708.748889	684.476667
244.614612	677.195000	699.040000
244.996486	682.049444	662.631667
245.378329	701.467222	730.593889
245.760142	686.903889	638.359444
246.141924	708.748889	650.495556
246.523676	733.021111	652.922778
246.905397	764.575000	657.777222
247.287088	728.166667	645.641111
247.668748	728.166667	655.350000
248.050378	703.894444	652.922778
248.431978	679.622222	730.593889
248.813547	667.486111	720.885000
249.195085	713.603333	686.903889
249.576593	762.147778	691.758333
249.958070	645.641111	696.612778
250.339517	655.350000	682.049444
250.720933	667.486111	638.359444
251.102318	643.213889	694.185556
251.483673	652.922778	745.157222
251.864997	635.932222	723.312222
252.246291	633.505000	694.185556
252.627554	791.274444	718.457778
253.008786	652.922778	657.777222
253.389987	633.505000	735.448333
253.771158	662.631667	713.603333
254.152298	754.866111	711.176111
254.533408	701.467222	599.523889
254.914486	718.457778	650.495556
255.295534	609.232778	652.922778
255.676551	733.021111	706.321667
256.057537	694.185556	657.777222
256.438492	752.438889	657.777222
256.819417	672.340556	604.378333
257.200310	689.331111	648.068333
257.581173	694.185556	669.913333
257.962005	691.758333	638.359444
258.342806	728.166667	713.603333
258.723576	706.321667	750.011667
259.104315	754.866111	686.903889
259.485023	718.457778	631.077778
259.865700	645.641111	694.185556
260.246347	650.495556	650.495556
260.626962	665.058889	640.786667
261.007546	686.903889	657.777222
261.388099	737.875556	684.476667
261.768621	723.312222	686.903889
262.149112	706.321667	716.030556
262.529573	686.903889	699.040000
262.910002	667.486111	677.195000
263.290399	645.641111	660.204444
263.670766	723.312222	677.195000
264.051102	669.913333	686.903889
264.431406	672.340556	691.758333
264.811680	682.049444	679.622222
265.191922	725.739444	696.612778
265.572133	759.720556	679.622222
265.952313	635.932222	706.321667
266.332461	657.777222	754.866111
266.712578	745.157222	633.505000
267.092665	589.815000	745.157222
267.472719	674.767778	633.505000
267.852743	648.068333	718.457778
268.232735	677.195000	638.359444
268.612696	674.767778	742.730000
268.992626	604.378333	783.992778
269.372524	716.030556	720.885000
269.752391	655.350000	737.875556
270.132226	660.204444	691.758333
270.512030	706.321667	631.077778
270.891803	631.077778	701.467222
271.271545	728.166667	648.068333
271.651255	730.593889	677.195000
272.030933	730.593889	694.185556
272.410580	682.049444	703.894444
272.790196	677.195000	684.476667
273.169780	696.612778	655.350000
273.549332	667.486111	703.894444
273.928853	682.049444	769.429444
274.308343	711.176111	701.467222
274.687800	677.195000	643.213889
275.067227	686.903889	723.312222
275.446622	684.476667	689.331111
275.825985	699.040000	696.612778
276.205316	660.204444	667.486111
276.584616	699.040000	674.767778
276.963885	711.176111	618.941667
277.343121	701.467222	689.331111
277.722326	711.176111	669.913333
278.101499	660.204444	694.185556
278.480641	638.359444	618.941667
278.859751	672.340556	618.941667
279.238829	723.312222	674.767778
279.617875	699.040000	643.213889
279.996890	708.748889	672.340556
280.375873	669.913333	703.894444
280.754824	677.195000	679.622222
281.133743	735.448333	686.903889
281.512631	628.650556	723.312222
281.891486	686.903889	682.049444
282.270310	718.457778	706.321667
282.649102	621.368889	672.340556
283.027862	691.758333	703.894444
283.406590	686.903889	606.805556
283.785286	604.378333	621.368889
284.163950	677.195000	735.448333
284.542582	677.195000	694.185556
284.921183	689.331111	679.622222
285.299751	650.495556	684.476667
285.678287	728.166667	696.612778
286.056792	662.631667	735.448333
286.435264	640.786667	691.758333
286.813704	711.176111	645.641111
287.192112	679.622222	723.312222
287.570489	686.903889	725.739444
287.948833	640.786667	713.603333
288.327145	662.631667	677.195000
288.705425	679.622222	694.185556
289.083672	686.903889	699.040000
289.461888	672.340556	735.448333
289.840071	733.021111	699.040000
290.218223	665.058889	660.204444
290.596342	655.350000	640.786667
290.974429	723.312222	699.040000
291.352483	628.650556	757.293333
291.730506	713.603333	691.758333
292.108496	657.777222	745.157222
292.486454	662.631667	694.185556
292.864379	682.049444	742.730000
293.242273	652.922778	684.476667
293.620134	631.077778	679.622222
293.997963	706.321667	635.932222
294.375759	669.913333	691.758333
294.753523	667.486111	706.321667
295.131255	730.593889	686.903889
295.508954	648.068333	701.467222
295.886621	725.739444	631.077778
296.264255	716.030556	672.340556
296.641857	733.021111	604.378333
297.019427	708.748889	684.476667
297.396964	691.758333	730.593889
297.774469	762.147778	713.603333
298.151941	703.894444	640.786667
298.529380	750.011667	640.786667
298.906788	713.603333	667.486111
299.284162	745.157222	720.885000
299.661504	733.021111	737.875556
300.038814	597.096667	701.467222
300.416090	684.476667	682.049444
300.793335	745.157222	754.866111
301.170546	674.767778	694.185556
301.547726	701.467222	662.631667
301.924872	677.195000	686.903889
302.301986	640.786667	674.767778
302.679067	737.875556	735.448333
303.056115	728.166667	701.467222
303.433131	677.195000	662.631667
303.810114	643.213889	691.758333
304.187064	686.903889	633.505000
304.563982	745.157222	701.467222
304.940866	783.992778	652.922778
305.317718	711.176111	638.359444
305.694537	718.457778	657.777222
306.071324	750.011667	691.758333
306.448077	677.195000	718.457778
306.824798	694.185556	679.622222
307.201486	633.505000	648.068333
307.578141	708.748889	696.612778
307.954763	652.922778	657.777222
308.331352	740.302778	696.612778
308.707908	699.040000	645.641111
309.084432	694.185556	703.894444
309.460922	757.293333	730.593889
309.837379	682.049444	691.758333
310.213804	682.049444	652.922778
310.590195	638.359444	711.176111
310.966554	650.495556	609.232778
311.342879	718.457778	696.612778
311.719172	771.856667	674.767778
312.095431	672.340556	730.593889
312.471657	735.448333	711.176111
312.847851	737.875556	720.885000
313.224011	708.748889	677.195000
313.600138	703.894444	679.622222
313.976232	689.331111	672.340556
314.352292	735.448333	708.748889
314.728320	689.331111	657.777222
315.104314	696.612778	703.894444
315.480275	682.049444	711.176111
315.856203	684.476667	725.739444
316.232098	633.505000	643.213889
316.607960	660.204444	679.622222
316.983788	733.021111	672.340556
317.359583	667.486111	689.331111
317.735345	757.293333	694.185556
318.111073	713.603333	657.777222
318.486769	701.467222	631.077778
318.862430	660.204444	694.185556
319.238059	711.176111	694.185556
319.613654	713.603333	650.495556
319.989216	684.476667	662.631667
320.364744	633.505000	580.106111
320.740239	694.185556	696.612778
321.115701	737.875556	769.429444
321.491129	677.195000	699.040000
321.866524	684.476667	669.913333
322.241885	677.195000	696.612778
322.617213	582.533333	752.438889
322.992507	696.612778	679.622222
323.367768	728.166667	737.875556
323.742995	689.331111	667.486111
324.118189	643.213889	703.894444
324.493349	672.340556	660.204444
324.868475	701.467222	650.495556
325.243568	718.457778	699.040000
325.618628	689.331111	779.138333
325.993654	631.077778	628.650556
326.368646	706.321667	696.612778
326.743604	660.204444	669.913333
327.118529	711.176111	699.040000
327.493421	723.312222	655.350000
327.868278	669.913333	718.457778
328.243102	662.631667	667.486111
328.617892	740.302778	652.922778
328.992648	694.185556	662.631667
329.367371	665.058889	703.894444
329.742060	662.631667	655.350000
330.116715	662.631667	679.622222
330.491336	691.758333	711.176111
330.865924	648.068333	633.505000
331.240477	771.856667	677.195000
331.614997	631.077778	645.641111
331.989483	645.641111	706.321667
332.363935	672.340556	682.049444
332.738354	609.232778	689.331111
333.112738	677.195000	730.593889
333.487088	716.030556	684.476667
333.861405	711.176111	686.903889
334.235687	691.758333	740.302778
334.609936	640.786667	691.758333
334.984150	662.631667	633.505000
335.358331	703.894444	728.166667
335.732478	682.049444	701.467222
336.106590	662.631667	638.359444
336.480669	754.866111	699.040000
336.854713	616.514444	716.030556
337.228724	689.331111	682.049444
337.602700	708.748889	718.457778
337.976642	716.030556	783.992778
338.350550	716.030556	694.185556
338.724424	708.748889	701.467222
339.098264	725.739444	703.894444
339.472070	711.176111	706.321667
339.845842	691.758333	703.894444
340.219579	696.612778	745.157222
340.593282	626.223333	643.213889
340.966951	733.021111	752.438889
341.340586	699.040000	689.331111
341.714186	677.195000	667.486111
342.087752	706.321667	691.758333
342.461284	682.049444	725.739444
342.834782	701.467222	716.030556
343.208245	740.302778	720.885000
343.581674	694.185556	633.505000
343.955069	720.885000	733.021111
344.328429	648.068333	650.495556
344.701755	667.486111	696.612778
345.075047	694.185556	723.312222
345.448304	689.331111	667.486111
345.821526	682.049444	655.350000
346.194715	757.293333	723.312222
346.567869	686.903889	657.777222
346.940988	597.096667	614.087222
347.314073	699.040000	657.777222
347.687123	725.739444	662.631667
348.060139	691.758333	667.486111
348.433121	723.312222	686.903889
348.806067	728.166667	696.612778
349.178980	703.894444	742.730000
349.551858	655.350000	716.030556
349.924701	716.030556	706.321667
350.297509	672.340556	669.913333
350.670283	674.767778	674.767778
351.043023	701.467222	657.777222
351.415727	665.058889	628.650556
351.788397	691.758333	711.176111
352.161033	694.185556	711.176111
352.533633	750.011667	713.603333
352.906199	660.204444	793.701667
353.278731	682.049444	684.476667
353.651227	648.068333	740.302778
354.023689	711.176111	718.457778
354.396116	667.486111	657.777222
354.768508	750.011667	684.476667
355.140866	740.302778	706.321667
355.513188	684.476667	623.796111
355.885476	669.913333	643.213889
356.257729	631.077778	640.786667
356.629947	728.166667	803.410556
357.002130	730.593889	703.894444
357.374279	691.758333	669.913333
357.746392	691.758333	713.603333
358.118471	747.584444	657.777222
358.490514	677.195000	679.622222
358.862523	662.631667	677.195000
359.234497	682.049444	674.767778
359.606436	648.068333	696.612778
359.978339	672.340556	638.359444
360.350208	696.612778	723.312222
360.722042	643.213889	706.321667
361.093841	694.185556	730.593889
361.465604	682.049444	643.213889
361.837333	716.030556	706.321667
362.209026	667.486111	720.885000
362.580685	716.030556	660.204444
362.952308	725.739444	786.420000
363.323896	667.486111	759.720556
363.695449	737.875556	648.068333
364.066967	730.593889	725.739444
364.438450	633.505000	752.438889
364.809897	708.748889	660.204444
365.181310	655.350000	662.631667
365.552687	611.660000	711.176111
365.924028	800.983333	706.321667
366.295335	633.505000	679.622222
366.666606	682.049444	718.457778
367.037842	682.049444	648.068333
367.409043	655.350000	645.641111
367.780209	660.204444	713.603333
368.151339	684.476667	713.603333
368.522434	660.204444	708.748889
368.893493	703.894444	677.195000
369.264517	628.650556	662.631667
369.635506	669.913333	725.739444
370.006459	745.157222	672.340556
370.377377	686.903889	650.495556
370.748260	633.505000	713.603333
371.119107	657.777222	621.368889
371.489918	672.340556	674.767778
371.860694	638.359444	684.476667
372.231435	689.331111	667.486111
372.602140	691.758333	706.321667
372.972809	638.359444	640.786667
373.343444	781.565556	643.213889
373.714042	660.204444	737.875556
374.084605	701.467222	672.340556
374.455132	696.612778	699.040000
374.825624	696.612778	655.350000
375.196080	682.049444	713.603333
375.566501	645.641111	728.166667
375.936885	682.049444	742.730000
376.307235	657.777222	723.312222
376.677548	776.711111	762.147778
377.047826	708.748889	708.748889
377.418068	669.913333	703.894444
377.788275	713.603333	684.476667
378.158445	694.185556	689.331111
378.528580	677.195000	618.941667
378.898679	728.166667	621.368889
379.268743	657.777222	694.185556
379.638770	669.913333	682.049444
380.008762	660.204444	686.903889
380.378718	672.340556	730.593889
380.748638	686.903889	679.622222
381.118523	725.739444	718.457778
381.488371	747.584444	706.321667
381.858184	628.650556	667.486111
382.227960	696.612778	640.786667
382.597701	703.894444	691.758333
382.967406	713.603333	628.650556
383.337075	667.486111	720.885000
383.706708	708.748889	631.077778
384.076304	635.932222	650.495556
384.445865	638.359444	606.805556
384.815390	662.631667	616.514444
385.184879	747.584444	635.932222
385.554332	582.533333	667.486111
385.923749	645.641111	618.941667
386.293130	682.049444	733.021111
386.662474	689.331111	720.885000
387.031783	696.612778	679.622222
387.401055	713.603333	606.805556
387.770292	708.748889	689.331111
388.139492	691.758333	674.767778
388.508656	657.777222	689.331111
388.877784	662.631667	713.603333
389.246876	696.612778	662.631667
389.615931	665.058889	728.166667
389.984950	669.913333	723.312222
390.353933	684.476667	716.030556
390.722880	708.748889	662.631667
391.091791	696.612778	699.040000
391.460665	754.866111	689.331111
391.829503	648.068333	684.476667
392.198304	713.603333	665.058889
392.567070	669.913333	701.467222
392.935799	771.856667	713.603333
393.304491	643.213889	640.786667
393.673148	720.885000	752.438889
394.041768	733.021111	713.603333
394.410351	679.622222	699.040000
394.778898	716.030556	652.922778
395.147409	757.293333	740.302778
395.515883	701.467222	718.457778
395.884321	703.894444	662.631667
396.252722	723.312222	711.176111
396.621087	665.058889	623.796111
396.989415	711.176111	713.603333
397.357707	667.486111	652.922778
397.725962	686.903889	701.467222
398.094181	652.922778	677.195000
398.462363	686.903889	662.631667
398.830508	645.641111	657.777222
399.198617	621.368889	660.204444
399.566689	672.340556	674.767778
399.934725	679.622222	767.002222
400.302724	725.739444	720.885000
400.670687	684.476667	699.040000
401.038612	696.612778	696.612778
401.406501	677.195000	733.021111
401.774354	696.612778	662.631667
402.142169	701.467222	640.786667
402.509948	645.641111	703.894444
402.877690	672.340556	720.885000
403.245396	679.622222	655.350000
403.613064	682.049444	742.730000
403.980696	684.476667	665.058889
404.348291	713.603333	684.476667
404.715849	657.777222	650.495556
405.083370	701.467222	662.631667
405.450855	701.467222	677.195000
405.818303	708.748889	674.767778
406.185713	640.786667	730.593889
406.553087	713.603333	708.748889
406.920424	730.593889	740.302778
407.287724	686.903889	652.922778
407.654987	694.185556	718.457778
408.022213	601.951111	752.438889
408.389402	650.495556	728.166667
408.756554	691.758333	745.157222
409.123669	694.185556	645.641111
409.490748	769.429444	686.903889
409.857789	635.932222	652.922778
410.224793	699.040000	723.312222
410.591760	706.321667	776.711111
410.958689	674.767778	689.331111
411.325582	764.575000	733.021111
411.692438	776.711111	754.866111
412.059256	733.021111	679.622222
412.426038	742.730000	686.903889
412.792782	703.894444	699.040000
413.159489	725.739444	716.030556
413.526159	672.340556	674.767778
413.892792	645.641111	718.457778
414.259387	677.195000	699.040000
414.625945	652.922778	667.486111
414.992466	684.476667	667.486111
415.358950	701.467222	662.631667
415.725396	706.321667	757.293333
416.091806	742.730000	633.505000
416.458177	679.622222	699.040000
416.824512	657.777222	713.603333
417.190809	650.495556	737.875556
417.557069	662.631667	677.195000
417.923291	696.612778	716.030556
418.289476	640.786667	655.350000
418.655624	718.457778	677.195000
419.021734	708.748889	691.758333
419.387807	684.476667	682.049444
419.753843	660.204444	694.185556
420.119841	669.913333	747.584444
420.485801	711.176111	657.777222
420.851724	628.650556	759.720556
421.217609	708.748889	713.603333
421.583457	742.730000	638.359444
421.949268	694.185556	720.885000
422.315041	723.312222	616.514444
422.680776	716.030556	667.486111
423.046474	706.321667	718.457778
423.412134	682.049444	682.049444
423.777756	645.641111	733.021111
424.143341	657.777222	713.603333
424.508888	725.739444	759.720556
424.874398	703.894444	655.350000
425.239870	747.584444	713.603333
425.605304	616.514444	657.777222
425.970701	686.903889	657.777222
426.336059	648.068333	594.669444
426.701381	703.894444	679.622222
427.066664	708.748889	716.030556
427.431909	711.176111	720.885000
427.797117	645.641111	645.641111
428.162287	718.457778	645.641111
428.527419	718.457778	643.213889
428.892514	669.913333	711.176111
429.257570	669.913333	689.331111
429.622589	723.312222	650.495556
429.987570	628.650556	708.748889
430.352513	701.467222	735.448333
430.717418	716.030556	708.748889
431.082285	689.331111	716.030556
431.447114	677.195000	716.030556
431.811905	703.894444	606.805556
432.176659	730.593889	718.457778
432.541374	628.650556	691.758333
432.906051	667.486111	655.350000
433.270691	672.340556	699.040000
433.635292	652.922778	706.321667
433.999855	691.758333	716.030556
434.364380	718.457778	725.739444
434.728867	655.350000	735.448333
435.093317	674.767778	665.058889
435.457728	696.612778	672.340556
435.822100	699.040000	648.068333
436.186435	682.049444	684.476667
436.550732	759.720556	691.758333
436.914990	752.438889	665.058889
437.279210	691.758333	747.584444
437.643392	667.486111	713.603333
438.007536	667.486111	757.293333
438.371642	718.457778	621.368889
438.735709	679.622222	718.457778
439.099739	730.593889	674.767778
439.463730	723.312222	689.331111
439.827682	742.730000	713.603333
440.191597	803.410556	616.514444
440.555473	708.748889	786.420000
440.919310	750.011667	730.593889
441.283110	679.622222	723.312222
441.646871	747.584444	691.758333
442.010593	725.739444	735.448333
442.374278	728.166667	728.166667
442.737924	762.147778	648.068333
443.101531	747.584444	682.049444
443.465100	679.622222	660.204444
443.828631	682.049444	708.748889
444.192123	696.612778	674.767778
444.555577	696.612778	679.622222
444.918992	616.514444	655.350000
445.282368	674.767778	679.622222
445.645707	701.467222	703.894444
446.009006	703.894444	684.476667
446.372267	769.429444	718.457778
446.735490	660.204444	686.903889
447.098674	691.758333	701.467222
447.461819	691.758333	737.875556
447.824926	638.359444	701.467222
448.187994	645.641111	696.612778
448.551023	740.302778	665.058889
448.914014	699.040000	672.340556
449.276966	623.796111	667.486111
449.639880	657.777222	660.204444
450.002754	694.185556	665.058889
450.365590	677.195000	611.660000
450.728388	626.223333	708.748889
451.091146	689.331111	686.903889
451.453866	759.720556	684.476667
451.816547	735.448333	669.913333
452.179189	742.730000	672.340556
452.541793	701.467222	711.176111
452.904357	694.185556	623.796111
453.266883	716.030556	682.049444
453.629370	677.195000	643.213889
453.991818	696.612778	754.866111
454.354227	711.176111	662.631667
454.716597	716.030556	747.584444
455.078929	718.457778	735.448333
455.441221	720.885000	577.678889
455.803475	711.176111	652.922778
456.165689	633.505000	740.302778
456.527865	689.331111	686.903889
456.890001	735.448333	701.467222
457.252099	657.777222	696.612778
457.614157	657.777222	703.894444
457.976177	711.176111	657.777222
458.338157	635.932222	660.204444
458.700099	725.739444	728.166667
459.062001	657.777222	696.612778
459.423864	750.011667	708.748889
459.785688	754.866111	706.321667
460.147473	672.340556	694.185556
460.509219	679.622222	689.331111
460.870926	638.359444	735.448333
461.232593	677.195000	655.350000
461.594221	699.040000	701.467222
461.955810	691.758333	669.913333
462.317360	679.622222	643.213889
462.678871	706.321667	716.030556
463.040342	696.612778	708.748889
463.401775	584.960556	701.467222
463.763167	686.903889	742.730000
464.124521	713.603333	737.875556
464.485835	665.058889	716.030556
464.847110	750.011667	650.495556
465.208346	711.176111	660.204444
465.569542	682.049444	703.894444
465.930699	667.486111	706.321667
466.291817	652.922778	652.922778
466.652895	689.331111	660.204444
467.013933	733.021111	706.321667
467.374933	689.331111	728.166667
467.735892	679.622222	657.777222
468.096813	759.720556	660.204444
468.457694	686.903889	682.049444
468.818535	728.166667	643.213889
469.179337	689.331111	652.922778
469.540099	750.011667	694.185556
469.900822	752.438889	674.767778
470.261506	677.195000	733.021111
470.622149	633.505000	684.476667
470.982753	655.350000	723.312222
471.343318	703.894444	623.796111
471.703843	628.650556	672.340556
472.064328	691.758333	679.622222
472.424774	623.796111	740.302778
472.785180	701.467222	720.885000
473.145546	628.650556	711.176111
473.505873	703.894444	733.021111
473.866160	667.486111	723.312222
474.226407	638.359444	672.340556
474.586615	737.875556	638.359444
474.946783	725.739444	696.612778
475.306911	686.903889	628.650556
475.666999	788.847222	733.021111
476.027047	694.185556	626.223333
476.387056	689.331111	713.603333
476.747025	716.030556	711.176111
477.106954	694.185556	660.204444
477.466843	677.195000	640.786667
477.826692	674.767778	745.157222
478.186502	694.185556	689.331111
478.546271	662.631667	650.495556
478.906001	679.622222	793.701667
479.265690	754.866111	691.758333
479.625340	674.767778	699.040000
479.984950	643.213889	684.476667
480.344519	665.058889	665.058889
480.704049	677.195000	674.767778
481.063539	725.739444	655.350000
481.422989	691.758333	660.204444
481.782398	662.631667	684.476667
482.141768	645.641111	665.058889
482.501098	660.204444	597.096667
482.860387	696.612778	723.312222
483.219637	650.495556	747.584444
483.578846	626.223333	677.195000
483.938015	735.448333	703.894444
484.297144	655.350000	720.885000
484.656233	703.894444	665.058889
485.015282	635.932222	701.467222
485.374291	740.302778	781.565556
485.733259	684.476667	696.612778
486.092187	679.622222	682.049444
486.451075	645.641111	657.777222
486.809923	689.331111	735.448333
487.168730	655.350000	677.195000
487.527497	701.467222	735.448333
487.886224	694.185556	691.758333
488.244910	696.612778	682.049444
488.603557	665.058889	691.758333
488.962162	750.011667	686.903889
489.320728	682.049444	643.213889
489.679253	716.030556	679.622222
490.037738	640.786667	669.913333
490.396182	640.786667	674.767778
490.754586	716.030556	735.448333
491.112950	677.195000	674.767778
491.471273	699.040000	708.748889
491.829555	689.331111	730.593889
492.187798	645.641111	684.476667
492.545999	631.077778	699.040000
492.904160	628.650556	662.631667
493.262281	701.467222	599.523889
493.620361	682.049444	684.476667
493.978401	684.476667	667.486111
494.336400	674.767778	699.040000
494.694358	655.350000	747.584444
495.052276	740.302778	674.767778
495.410153	669.913333	643.213889
495.767990	699.040000	708.748889
496.125786	716.030556	694.185556
496.483541	706.321667	684.476667
496.841255	575.251667	677.195000
497.198929	740.302778	633.505000
497.556563	730.593889	762.147778
497.914155	696.612778	694.185556
498.271707	633.505000	699.040000
498.629218	735.448333	679.622222
498.986688	655.350000	711.176111
499.344118	631.077778	623.796111
499.701506	665.058889	716.030556
500.058854	730.593889	730.593889
500.416161	706.321667	742.730000
500.773428	674.767778	703.894444
501.130653	672.340556	725.739444
501.487837	694.185556	713.603333
501.844981	657.777222	713.603333
502.202084	691.758333	667.486111
502.559146	735.448333	728.166667
502.916167	684.476667	733.021111
503.273146	718.457778	723.312222
503.630085	616.514444	650.495556
503.986984	669.913333	691.758333
504.343841	718.457778	699.040000
504.700657	679.622222	686.903889
505.057432	723.312222	686.903889
505.414166	774.283889	745.157222
505.770858	776.711111	621.368889
506.127510	706.321667	652.922778
506.484121	725.739444	735.448333
506.840691	652.922778	689.331111
507.197219	640.786667	716.030556
507.553707	633.505000	701.467222
507.910153	638.359444	701.467222
508.266558	730.593889	699.040000
508.622922	684.476667	665.058889
508.979245	723.312222	662.631667
509.335527	655.350000	716.030556
509.691767	701.467222	686.903889
510.047966	643.213889	655.350000
510.404124	711.176111	706.321667
510.760241	725.739444	689.331111
511.116316	691.758333	735.448333
511.472350	655.350000	733.021111
511.828343	723.312222	718.457778
512.184295	684.476667	723.312222
512.540205	667.486111	696.612778
512.896073	703.894444	662.631667
513.251901	682.049444	701.467222
513.607687	752.438889	706.321667
513.963431	669.913333	706.321667
514.319135	667.486111	677.195000
514.674796	706.321667	662.631667
515.030417	742.730000	699.040000
515.385996	730.593889	665.058889
515.741533	711.176111	779.138333
516.097029	635.932222	684.476667
516.452483	725.739444	686.903889
516.807896	745.157222	648.068333
517.163268	740.302778	657.777222
517.518597	757.293333	682.049444
517.873886	672.340556	672.340556
518.229132	701.467222	657.777222
518.584337	720.885000	638.359444
518.939501	703.894444	669.913333
519.294623	669.913333	662.631667
519.649703	769.429444	691.758333
520.004742	696.612778	674.767778
520.359738	614.087222	686.903889
520.714694	713.603333	660.204444
521.069607	706.321667	711.176111
521.424479	694.185556	701.467222
521.779309	716.030556	648.068333
522.134097	689.331111	716.030556
522.488844	735.448333	740.302778
522.843549	672.340556	694.185556
523.198211	682.049444	638.359444
523.552833	699.040000	706.321667
523.907412	652.922778	689.331111
524.261949	720.885000	713.603333
524.616445	759.720556	718.457778
524.970899	677.195000	672.340556
525.325311	805.837778	728.166667
525.679681	706.321667	674.767778
526.034009	618.941667	648.068333
526.388295	660.204444	783.992778
526.742539	677.195000	747.584444
527.096742	747.584444	699.040000
527.450902	696.612778	711.176111
527.805020	699.040000	694.185556
528.159096	703.894444	672.340556
528.513131	754.866111	713.603333
528.867123	793.701667	730.593889
529.221073	662.631667	747.584444
529.574981	730.593889	740.302778
529.928847	1128.658333	1131.085556
530.282671	2820.432222	2973.347222
530.636453	4337.446111	4531.623889
530.990193	3065.581667	3371.411667
531.343891	1995.176667	2099.547222
531.697546	1640.802222	1626.238889
532.051159	1165.066667	1269.437222
532.404730	898.072222	866.518333
532.758259	783.992778	827.682778
533.111746	745.157222	733.021111
533.465190	713.603333	706.321667
533.818593	703.894444	708.748889
534.171952	633.505000	711.176111
534.525270	686.903889	621.368889
534.878545	723.312222	672.340556
535.231778	720.885000	643.213889
535.584969	635.932222	686.903889
535.938118	669.913333	725.739444
536.291224	720.885000	786.420000
536.644287	686.903889	638.359444
536.997309	716.030556	720.885000
537.350288	759.720556	723.312222
537.703224	635.932222	716.030556
538.056118	594.669444	730.593889
538.408970	708.748889	757.293333
538.761779	752.438889	740.302778
539.114546	723.312222	691.758333
539.467270	665.058889	745.157222
539.819951	733.021111	682.049444
540.172591	742.730000	728.166667
540.525187	699.040000	589.815000
540.877741	718.457778	645.641111
541.230253	645.641111	694.185556
541.582722	674.767778	701.467222
541.935148	662.631667	776.711111
542.287532	740.302778	699.040000
542.639873	735.448333	682.049444
542.992172	665.058889	718.457778
543.344427	747.584444	708.748889
543.696641	750.011667	689.331111
544.048811	718.457778	745.157222
544.400939	701.467222	677.195000
544.753024	708.748889	648.068333
545.105066	723.312222	735.448333
545.457066	718.457778	728.166667
545.809023	728.166667	745.157222
546.160937	689.331111	669.913333
546.512808	713.603333	725.739444
546.864636	708.748889	718.457778
547.216422	742.730000	660.204444
547.568165	718.457778	728.166667
547.919865	696.612778	679.622222
548.271522	783.992778	750.011667
548.623136	718.457778	752.438889
548.974707	737.875556	730.593889
549.326236	708.748889	747.584444
549.677721	696.612778	783.992778
550.029164	793.701667	711.176111
550.380563	771.856667	754.866111
550.731920	769.429444	796.128889
551.083233	783.992778	851.955000
551.434504	767.002222	817.973889
551.785731	885.936111	834.964444
552.136916	859.236667	885.936111
552.488057	927.198889	854.382222
552.839156	859.236667	902.926667
553.190211	975.743333	1002.442778
553.541223	1070.405000	1017.006111
553.892193	1082.541111	1131.085556
554.243119	1218.465556	1237.883333
554.594002	1305.845556	1237.883333
554.944841	1424.779444	1359.244444
555.295638	1502.450556	1519.441111
555.646391	1684.492222	1614.102778
555.997101	1866.533889	1881.097222
556.347768	1990.322222	2196.636111
556.698392	2293.725000	2325.278889
557.048972	2497.611667	2616.545556
557.399510	2854.413333	3031.600556
557.750004	3203.933333	3318.012778
558.100454	3524.326667	3551.026111
558.450862	3885.982778	4186.958333
558.801226	4490.361111	4864.153333
559.151546	5325.325556	5793.779444
559.501824	5696.690556	6228.252222
559.852058	6291.360000	6878.747778
560.202248	6839.912222	7463.708333
560.552395	7434.581667	8315.663333
560.902499	7905.462778	8839.943333
561.252560	8854.506667	9660.344444
561.602576	9444.321667	10808.420556
561.952550	10233.168889	11422.507778
562.302480	11206.485000	12136.111111
562.652366	12179.801111	13607.007778
563.002209	12585.147222	14250.221667
563.352009	13558.463333	14975.961111
563.701765	14803.628333	16245.398333
564.051477	16269.670556	17155.606667
564.401146	16781.814444	17628.915000
564.750771	16963.856111	17988.143889
565.100353	17759.985000	18432.325556
565.449891	18043.970000	18716.310556
565.799385	17641.051111	17922.608889
566.148836	16992.982778	17563.380000
566.498243	15750.245000	15995.394444
566.847607	14376.437222	14463.817222
567.196927	12772.043333	13009.911111
567.546203	11347.263889	11774.455000
567.895435	9961.320000	10420.065000
568.244624	8903.051111	9223.444444
568.593768	7534.097778	8167.602778
568.942870	6822.921667	7451.572222
569.291927	6058.346667	6485.537778
569.640940	5257.363333	5720.962778
569.989910	4669.975556	5196.682778
570.338836	4305.892222	4660.266667
570.687718	3985.498889	4007.343889
571.036557	3720.931667	3849.574444
571.385351	3296.167778	3517.045000
571.734101	3123.835000	3327.721667
572.082808	3021.891667	3004.901111
572.431471	2922.375556	3072.863333
572.780089	2776.742222	2767.033333
573.128664	2526.738333	2618.972778
573.477195	2456.348889	2466.057778
573.825682	2378.677778	2407.804444
574.174125	2351.978333	2376.250556
574.522524	2216.053889	2177.218333
574.870879	2191.781667	2157.800556
575.219189	2002.458333	1910.223889
575.567456	1973.331667	2021.876111
575.915679	1963.622778	1854.397778
576.263858	1847.116111	1842.261667
576.611992	1859.252222	1864.106667
576.960083	1745.172778	1844.688889
577.308129	1711.191667	1713.618889
577.656131	1652.938333	1635.947778
578.004089	1672.356111	1599.539444
578.352003	1572.840000	1623.811667
578.699873	1504.877778	1468.469444
579.047698	1470.896667	1538.858889
579.395479	1417.497778	1512.159444
579.743217	1487.887222	1361.671667
580.090909	1424.779444	1536.431667
580.438558	1436.915556	1436.915556
580.786162	1371.380556	1393.225556
581.133722	1376.235000	1320.408889
581.481238	1303.418333	1245.165000
581.828709	1298.563889	1390.798333
582.176136	1247.592222	1305.845556
582.523519	1233.028889	1281.573333
582.870857	1250.019444	1264.582778
583.218151	1177.202778	1228.174444
583.565400	1092.250000	1172.348333
583.912605	1157.785000	1174.775556
584.259766	1165.066667	1101.958889
584.606882	1121.376667	1157.785000
584.953954	1111.667778	1206.329444
585.300981	1092.250000	1148.076111
585.647964	1077.686667	1099.531667
585.994902	1116.522222	1109.240556
586.341796	1140.794444	1070.405000
586.688646	1055.841667	1072.832222
587.035450	1058.268889	1038.851111
587.382210	1041.278333	1080.113889
587.728926	1070.405000	1038.851111
588.075597	1009.724444	1017.006111
588.422223	1070.405000	980.597778
588.768805	1000.015556	1055.841667
589.115342	997.588333	1012.151667
589.461835	992.733889	1060.696111
589.808282	992.733889	941.762222
590.154685	1000.015556	995.161111
590.501044	934.480556	966.034444
590.847357	1041.278333	893.217778
591.193626	1031.569444	1012.151667
591.539851	1012.151667	1007.297222
591.886030	963.607222	956.325556
592.232165	1000.015556	946.616667
592.578255	983.025000	997.588333
592.924300	1026.715000	990.306667
593.270300	1009.724444	1021.860556
593.616255	941.762222	958.752778
593.962166	961.180000	978.170556
594.308032	973.316111	944.189444
594.653852	968.461667	956.325556
594.999628	946.616667	919.917222
595.345359	956.325556	883.508889
595.691045	912.635556	978.170556
596.036686	961.180000	919.917222
596.382283	963.607222	939.335000
596.727834	978.170556	944.189444
597.073340	990.306667	866.518333
597.418801	975.743333	1009.724444
597.764217	958.752778	939.335000
598.109589	919.917222	915.062778
598.454915	956.325556	905.353889
598.800196	936.907778	963.607222
599.145432	953.898333	946.616667
599.490623	919.917222	949.043889
599.835768	958.752778	932.053333
600.180869	868.945556	919.917222
600.525925	919.917222	956.325556
600.870935	890.790556	898.072222
601.215900	963.607222	898.072222
601.560820	956.325556	934.480556
601.905695	939.335000	975.743333
602.250525	949.043889	890.790556
602.595309	902.926667	968.461667
602.940048	851.955000	895.645000
603.284742	871.372778	934.480556
603.629390	883.508889	820.401111
603.973994	946.616667	866.518333
604.318552	883.508889	941.762222
604.663064	910.208333	958.752778
605.007532	963.607222	888.363333
605.351954	1004.870000	873.800000
605.696330	878.654444	905.353889
606.040661	881.081667	866.518333
606.384947	825.255556	919.917222
606.729188	866.518333	827.682778
607.073383	944.189444	932.053333
607.417532	978.170556	893.217778
607.761636	866.518333	917.490000
608.105695	924.771667	907.781111
608.449708	970.888889	861.663889
608.793676	953.898333	839.818889
609.137598	900.499444	905.353889
609.481474	905.353889	895.645000
609.825305	861.663889	898.072222
610.169091	905.353889	944.189444
610.512831	866.518333	871.372778
610.856525	907.781111	919.917222
611.200174	890.790556	883.508889
611.543777	922.344444	912.635556
611.887334	885.936111	844.673333
612.230846	859.236667	902.926667
612.574312	927.198889	893.217778
612.917733	944.189444	902.926667
613.261107	844.673333	798.556111
613.604436	893.217778	854.382222
613.947720	827.682778	902.926667
614.290957	868.945556	936.907778
614.634149	851.955000	915.062778
614.977295	878.654444	915.062778
615.320395	881.081667	885.936111
615.663450	902.926667	924.771667
616.006458	902.926667	842.246111
616.349421	868.945556	907.781111
616.692338	949.043889	895.645000
617.035209	949.043889	900.499444
617.378034	791.274444	878.654444
617.720813	871.372778	827.682778
618.063546	934.480556	844.673333
618.406234	834.964444	834.964444
618.748875	890.790556	888.363333
619.091471	854.382222	885.936111
619.434020	893.217778	898.072222
619.776524	885.936111	883.508889
620.118982	883.508889	890.790556
620.461393	827.682778	878.654444
620.803759	842.246111	895.645000
621.146078	910.208333	856.809444
621.488351	868.945556	774.283889
621.830579	851.955000	915.062778
622.172760	854.382222	864.091111
622.514895	851.955000	810.692222
622.856984	854.382222	922.344444
623.199027	939.335000	844.673333
623.541024	936.907778	861.663889
623.882974	888.363333	825.255556
624.224878	895.645000	905.353889
624.566737	939.335000	917.490000
624.908549	934.480556	905.353889
625.250314	876.227222	905.353889
625.592034	830.110000	851.955000
625.933707	910.208333	893.217778
626.275334	849.527778	900.499444
626.616914	830.110000	866.518333
626.958449	854.382222	820.401111
627.299937	844.673333	878.654444
627.641378	810.692222	822.828333
627.982774	900.499444	813.119444
628.324123	854.382222	890.790556
628.665425	830.110000	902.926667
629.006681	805.837778	851.955000
629.347891	791.274444	883.508889
629.689055	825.255556	864.091111
630.030171	825.255556	813.119444
630.371242	817.973889	890.790556
630.712266	839.818889	815.546667
631.053243	873.800000	871.372778
631.394174	871.372778	815.546667
631.735059	803.410556	793.701667
632.075897	771.856667	776.711111
632.416688	873.800000	832.537222
632.757433	810.692222	827.682778
633.098131	783.992778	854.382222
633.438783	839.818889	742.730000
633.779388	798.556111	825.255556
634.119946	791.274444	808.265000
634.460458	810.692222	839.818889
634.800923	832.537222	791.274444
635.141342	750.011667	822.828333
635.481713	793.701667	815.546667
635.822038	810.692222	830.110000
636.162317	822.828333	781.565556
636.502548	868.945556	776.711111
636.842733	752.438889	842.246111
637.182871	796.128889	774.283889
637.522963	791.274444	859.236667
637.863007	781.565556	791.274444
638.203005	767.002222	825.255556
638.542956	767.002222	798.556111
638.882860	783.992778	868.945556
639.222717	779.138333	791.274444
639.562528	796.128889	735.448333
639.902291	800.983333	888.363333
640.242008	783.992778	762.147778
640.581677	822.828333	774.283889
640.921300	791.274444	783.992778
641.260876	764.575000	754.866111
641.600405	713.603333	844.673333
641.939887	820.401111	793.701667
642.279322	861.663889	745.157222
642.618710	837.391667	834.964444
642.958050	793.701667	730.593889
643.297344	759.720556	759.720556
643.636591	764.575000	745.157222
643.975791	757.293333	723.312222
644.314944	781.565556	764.575000
644.654049	800.983333	885.936111
644.993108	815.546667	781.565556
645.332119	851.955000	796.128889
645.671083	774.283889	737.875556
646.010000	830.110000	817.973889
646.348870	861.663889	781.565556
646.687693	859.236667	798.556111
647.026468	691.758333	786.420000
647.365197	757.293333	791.274444
647.703878	830.110000	735.448333
648.042511	783.992778	861.663889
648.381098	820.401111	786.420000
648.719637	839.818889	803.410556
649.058129	759.720556	662.631667
649.396574	774.283889	728.166667
649.734971	769.429444	815.546667
650.073321	796.128889	757.293333
650.411624	733.021111	786.420000
650.749879	759.720556	813.119444
651.088087	800.983333	786.420000
651.426248	737.875556	740.302778
651.764361	817.973889	745.157222
652.102427	774.283889	776.711111
652.440445	706.321667	788.847222
652.778416	769.429444	881.081667
653.116339	808.265000	791.274444
653.454215	783.992778	764.575000
653.792043	716.030556	793.701667
654.129824	776.711111	754.866111
654.467557	703.894444	803.410556
654.805243	803.410556	796.128889
655.142881	762.147778	817.973889
655.480472	735.448333	793.701667
655.818015	771.856667	779.138333
656.155510	813.119444	808.265000
656.492958	769.429444	718.457778
656.830358	762.147778	800.983333
657.167711	847.100556	779.138333
657.505015	803.410556	774.283889
657.842273	764.575000	813.119444
658.179482	815.546667	832.537222
658.516644	781.565556	767.002222
658.853758	703.894444	754.866111
659.190824	728.166667	781.565556
659.527842	728.166667	820.401111
659.864813	800.983333	832.537222
660.201736	800.983333	774.283889
660.538611	796.128889	866.518333
660.875438	742.730000	737.875556
661.212218	730.593889	830.110000
661.548950	711.176111	757.293333
661.885633	839.818889	798.556111
662.222269	830.110000	730.593889
662.558857	815.546667	854.382222
662.895397	844.673333	847.100556
663.231889	851.955000	767.002222
663.568334	771.856667	781.565556
663.904730	754.866111	830.110000
664.241078	883.508889	808.265000
664.577378	781.565556	805.837778
664.913631	757.293333	776.711111
665.249835	779.138333	767.002222
665.585991	786.420000	827.682778
665.922099	747.584444	839.818889
666.258159	725.739444	805.837778
666.594171	745.157222	793.701667
666.930135	774.283889	798.556111
667.266051	854.382222	851.955000
667.601919	820.401111	764.575000
667.937738	815.546667	842.246111
668.273510	817.973889	769.429444
668.609233	927.198889	895.645000
668.944908	878.654444	837.391667
669.280535	694.185556	876.227222
669.616114	861.663889	803.410556
669.951644	847.100556	786.420000
670.287126	805.837778	830.110000
670.622560	856.809444	902.926667
670.957946	810.692222	859.236667
671.293283	805.837778	796.128889
671.628572	844.673333	813.119444
671.963813	810.692222	822.828333
672.299006	861.663889	847.100556
672.634150	864.091111	754.866111
672.969245	844.673333	805.837778
673.304293	839.818889	825.255556
673.639291	885.936111	776.711111
673.974242	805.837778	781.565556
674.309144	834.964444	834.964444
674.643998	859.236667	767.002222
674.978803	893.217778	866.518333
675.313560	783.992778	864.091111
675.648268	783.992778	898.072222
675.982928	859.236667	822.828333
676.317539	834.964444	861.663889
676.652101	859.236667	878.654444
676.986615	854.382222	873.800000
677.321081	878.654444	839.818889
677.655498	742.730000	832.537222
677.989866	813.119444	786.420000
678.324186	832.537222	888.363333
678.658457	813.119444	876.227222
678.992680	788.847222	825.255556
679.326854	847.100556	827.682778
679.660979	759.720556	859.236667
679.995055	866.518333	873.800000
680.329083	810.692222	866.518333
680.663062	883.508889	851.955000
680.996993	878.654444	776.711111
681.330874	796.128889	885.936111
681.664707	842.246111	854.382222
681.998491	822.828333	827.682778
682.332227	786.420000	815.546667
682.665913	827.682778	876.227222
682.999551	861.663889	871.372778
683.333140	847.100556	871.372778
683.666680	827.682778	873.800000
684.000171	791.274444	871.372778
684.333613	771.856667	847.100556
684.667006	893.217778	839.818889
685.000351	820.401111	864.091111
685.333646	888.363333	856.809444
685.666893	919.917222	834.964444
686.000091	900.499444	813.119444
686.333239	878.654444	912.635556
686.666339	849.527778	839.818889
686.999390	839.818889	813.119444
687.332391	915.062778	844.673333
687.665344	883.508889	830.110000
687.998247	800.983333	774.283889
688.331102	873.800000	876.227222
688.663907	924.771667	888.363333
688.996664	854.382222	883.508889
689.329371	834.964444	822.828333
689.662029	825.255556	951.471111
689.994638	849.527778	842.246111
690.327198	815.546667	873.800000
690.659708	786.420000	883.508889
690.992170	927.198889	866.518333
691.324582	878.654444	924.771667
691.656945	856.809444	844.673333
691.989259	810.692222	815.546667
692.321524	868.945556	878.654444
692.653739	895.645000	810.692222
692.985905	849.527778	837.391667
693.318022	900.499444	854.382222
693.650089	803.410556	810.692222
693.982107	779.138333	895.645000
694.314076	837.391667	827.682778
694.645996	851.955000	851.955000
694.977866	861.663889	825.255556
695.309686	881.081667	864.091111
695.641458	822.828333	895.645000
695.973180	849.527778	873.800000
696.304852	907.781111	810.692222
696.636475	839.818889	939.335000
696.968049	781.565556	733.021111
697.299573	881.081667	881.081667
697.631047	849.527778	849.527778
697.962472	798.556111	817.973889
698.293848	808.265000	813.119444
698.625174	851.955000	832.537222
698.956451	810.692222	798.556111
699.287678	830.110000	842.246111
699.618855	798.556111	817.973889
699.949983	868.945556	864.091111
700.281061	844.673333	885.936111
700.612089	834.964444	834.964444
700.943068	842.246111	851.955000
701.273998	849.527778	878.654444
701.604877	825.255556	793.701667
701.935707	917.490000	910.208333
702.266487	813.119444	817.973889
702.597218	881.081667	963.607222
702.927899	805.837778	885.936111
703.258530	866.518333	878.654444
703.589111	851.955000	842.246111
703.919642	825.255556	864.091111
704.250124	820.401111	839.818889
704.580556	864.091111	771.856667
704.910938	808.265000	808.265000
705.241270	788.847222	825.255556
705.571553	844.673333	883.508889
705.901785	837.391667	764.575000
706.231968	842.246111	873.800000
706.562101	776.711111	873.800000
706.892184	771.856667	774.283889
707.222216	832.537222	847.100556
707.552199	815.546667	885.936111
707.882132	781.565556	902.926667
708.212016	779.138333	800.983333
708.541849	859.236667	832.537222
708.871632	878.654444	830.110000
709.201365	774.283889	779.138333
709.531048	851.955000	873.800000
709.860681	839.818889	800.983333
710.190264	762.147778	822.828333
710.519796	876.227222	827.682778
710.849279	747.584444	830.110000
711.178712	735.448333	815.546667
711.508094	813.119444	754.866111
711.837427	837.391667	786.420000
712.166709	871.372778	847.100556
712.495941	808.265000	803.410556
712.825123	810.692222	742.730000
713.154255	800.983333	798.556111
713.483336	861.663889	771.856667
713.812367	834.964444	822.828333
714.141348	827.682778	808.265000
714.470279	847.100556	788.847222
714.799159	737.875556	800.983333
715.127990	798.556111	779.138333
715.456769	851.955000	781.565556
715.785499	813.119444	781.565556
716.114178	800.983333	737.875556
716.442807	791.274444	800.983333
716.771385	723.312222	796.128889
717.099914	800.983333	752.438889
717.428391	876.227222	788.847222
717.756819	815.546667	825.255556
718.085195	832.537222	786.420000
718.413522	750.011667	808.265000
718.741798	800.983333	776.711111
719.070023	827.682778	859.236667
719.398198	854.382222	798.556111
719.726323	800.983333	771.856667
720.054397	776.711111	764.575000
720.382420	815.546667	803.410556
720.710393	779.138333	796.128889
721.038316	779.138333	750.011667
721.366188	718.457778	757.293333
721.694009	786.420000	796.128889
722.021779	767.002222	737.875556
722.349499	733.021111	735.448333
722.677169	767.002222	800.983333
723.004787	783.992778	728.166667
723.332355	788.847222	786.420000
723.659873	725.739444	810.692222
723.987339	786.420000	699.040000
724.314755	791.274444	791.274444
724.642120	810.692222	745.157222
724.969435	776.711111	754.866111
725.296699	764.575000	740.302778
725.623911	745.157222	783.992778
725.951074	820.401111	842.246111
726.278185	716.030556	832.537222
726.605245	788.847222	754.866111
726.932255	771.856667	747.584444
727.259214	757.293333	742.730000
727.586122	820.401111	798.556111
727.912979	793.701667	733.021111
728.239785	759.720556	805.837778
728.566540	774.283889	750.011667
728.893245	783.992778	796.128889
729.219898	796.128889	752.438889
729.546501	725.739444	800.983333
729.873052	791.274444	810.692222
730.199552	767.002222	830.110000
730.526002	742.730000	825.255556
730.852400	774.283889	779.138333
731.178748	745.157222	771.856667
731.505044	759.720556	786.420000
731.831290	694.185556	803.410556
732.157484	703.894444	764.575000
732.483627	776.711111	781.565556
732.809719	798.556111	689.331111
733.135760	796.128889	759.720556
733.461750	800.983333	822.828333
733.787688	781.565556	757.293333
734.113576	745.157222	764.575000
734.439412	796.128889	793.701667
734.765197	803.410556	713.603333
735.090931	735.448333	728.166667
735.416614	696.612778	740.302778
735.742245	735.448333	747.584444
736.067825	757.293333	847.100556
736.393354	723.312222	742.730000
736.718832	791.274444	730.593889
737.044258	788.847222	733.021111
737.369633	713.603333	733.021111
737.694957	757.293333	747.584444
738.020229	725.739444	771.856667
738.345450	694.185556	720.885000
738.670619	762.147778	674.767778
738.995738	830.110000	771.856667
739.320804	759.720556	740.302778
739.645820	776.711111	764.575000
739.970784	774.283889	786.420000
740.295696	764.575000	728.166667
740.620557	767.002222	764.575000
740.945366	754.866111	759.720556
741.270124	779.138333	730.593889
741.594831	740.302778	696.612778
741.919486	718.457778	745.157222
742.244089	745.157222	735.448333
742.568641	788.847222	762.147778
742.893141	747.584444	718.457778
743.217590	781.565556	740.302778
743.541987	747.584444	720.885000
743.866332	759.720556	779.138333
744.190626	767.002222	711.176111
744.514868	750.011667	754.866111
744.839058	716.030556	730.593889
745.163197	742.730000	745.157222
745.487284	754.866111	810.692222
745.811320	733.021111	757.293333
746.135303	779.138333	769.429444
746.459235	783.992778	783.992778
746.783115	764.575000	679.622222
747.106944	786.420000	750.011667
747.430720	650.495556	735.448333
747.754445	725.739444	820.401111
748.078118	769.429444	711.176111
748.401739	779.138333	759.720556
748.725308	771.856667	757.293333
749.048825	679.622222	762.147778
749.372291	703.894444	752.438889
749.695705	747.584444	728.166667
750.019066	735.448333	740.302778
750.342376	803.410556	750.011667
750.665634	752.438889	742.730000
750.988840	783.992778	786.420000
751.311994	723.312222	764.575000
751.635096	752.438889	720.885000
751.958146	733.021111	735.448333
752.281143	711.176111	728.166667
752.604089	776.711111	742.730000
752.926983	643.213889	723.312222
753.249825	757.293333	793.701667
753.572615	733.021111	733.021111
753.895352	713.603333	674.767778
754.218038	708.748889	776.711111
754.540671	711.176111	740.302778
754.863252	735.448333	716.030556
755.185781	733.021111	759.720556
755.508258	711.176111	776.711111
755.830683	767.002222	713.603333
756.153056	742.730000	757.293333
756.475376	730.593889	694.185556
756.797644	769.429444	745.157222
757.119860	774.283889	733.021111
757.442023	762.147778	735.448333
757.764135	708.748889	699.040000
758.086194	703.894444	735.448333
758.408201	769.429444	701.467222
758.730155	716.030556	808.265000
759.052057	805.837778	708.748889
759.373907	650.495556	728.166667
759.695704	808.265000	798.556111
760.017449	745.157222	733.021111
760.339142	735.448333	669.913333
760.660782	735.448333	686.903889
760.982370	713.603333	733.021111
761.303905	745.157222	720.885000
761.625388	769.429444	757.293333
761.946818	587.387778	708.748889
762.268196	728.166667	740.302778
762.589521	694.185556	689.331111
762.910794	723.312222	718.457778
763.232015	750.011667	713.603333
763.553182	757.293333	735.448333
763.874298	783.992778	706.321667
764.195360	694.185556	730.593889
764.516370	800.983333	796.128889
764.837328	740.302778	752.438889
765.158233	750.011667	783.992778
765.479085	725.739444	657.777222
765.799885	742.730000	720.885000
766.120631	696.612778	672.340556
766.441326	805.837778	701.467222
766.761967	718.457778	684.476667
767.082556	677.195000	762.147778
767.403092	791.274444	737.875556
767.723575	689.331111	635.932222
768.044006	723.312222	754.866111
768.364384	808.265000	793.701667
768.684709	791.274444	733.021111
769.004981	742.730000	696.612778
769.325200	720.885000	672.340556
769.645367	694.185556	723.312222
769.965481	672.340556	645.641111
770.285541	733.021111	737.875556
770.605549	725.739444	757.293333
770.925504	703.894444	699.040000
771.245407	716.030556	754.866111
771.565256	674.767778	776.711111
771.885052	783.992778	725.739444
772.204795	689.331111	730.593889
772.524486	699.040000	720.885000
772.844123	686.903889	682.049444
773.163708	767.002222	750.011667
773.483239	757.293333	752.438889
773.802717	745.157222	759.720556
774.122142	696.612778	718.457778
774.441515	725.739444	677.195000
774.760834	684.476667	759.720556
775.080100	669.913333	682.049444
775.399313	728.166667	740.302778
775.718473	733.021111	628.650556
776.037579	716.030556	728.166667
776.356633	771.856667	747.584444
776.675633	776.711111	691.758333
776.994580	750.011667	783.992778
777.313474	713.603333	733.021111
777.632315	689.331111	783.992778
777.951103	665.058889	713.603333
778.269837	713.603333	759.720556
778.588518	667.486111	694.185556
778.907146	720.885000	696.612778
779.225720	718.457778	711.176111
779.544242	767.002222	711.176111
779.862709	689.331111	686.903889
780.181124	718.457778	742.730000
780.499485	672.340556	682.049444
780.817793	684.476667	711.176111
781.136047	672.340556	711.176111
781.454248	723.312222	737.875556
781.772396	679.622222	652.922778
782.090490	713.603333	730.593889
782.408531	708.748889	677.195000
782.726518	628.650556	699.040000
783.044452	696.612778	733.021111
783.362333	628.650556	716.030556
783.680159	667.486111	689.331111
783.997933	750.011667	771.856667
784.315653	735.448333	742.730000
784.633319	665.058889	762.147778
784.950932	769.429444	762.147778
785.268491	769.429444	774.283889
785.585996	669.913333	752.438889
785.903448	725.739444	779.138333
786.220847	774.283889	686.903889
786.538191	747.584444	716.030556
786.855482	723.312222	754.866111
787.172720	669.913333	713.603333
787.489903	701.467222	733.021111
787.807033	733.021111	691.758333
788.124110	733.021111	776.711111
788.441132	725.739444	740.302778
788.758101	725.739444	774.283889
789.075016	696.612778	689.331111
789.391877	621.368889	716.030556
789.708685	706.321667	764.575000
790.025438	740.302778	716.030556
790.342138	679.622222	691.758333
790.658784	713.603333	667.486111
790.975376	655.350000	694.185556
791.291915	706.321667	635.932222
791.608399	711.176111	662.631667
791.924830	713.603333	604.378333
792.241206	686.903889	713.603333
792.557529	713.603333	674.767778
792.873798	706.321667	720.885000
793.190012	691.758333	701.467222
793.506173	672.340556	684.476667
793.822280	745.157222	720.885000
794.138333	686.903889	720.885000
794.454332	752.438889	699.040000
794.770277	672.340556	713.603333
795.086167	733.021111	694.185556
795.402004	645.641111	657.777222
795.717787	684.476667	689.331111
796.033515	679.622222	677.195000
796.349190	672.340556	788.847222
796.664810	786.420000	720.885000
796.980376	733.021111	674.767778
797.295888	635.932222	672.340556
797.611346	682.049444	682.049444
797.926750	735.448333	708.748889
798.242099	728.166667	725.739444
798.557394	730.593889	689.331111
798.872635	730.593889	742.730000
799.187822	648.068333	725.739444
799.502955	774.283889	701.467222
799.818033	713.603333	711.176111
800.133057	669.913333	674.767778
800.448027	655.350000	713.603333
800.762942	725.739444	718.457778
801.077803	662.631667	689.331111
801.392610	711.176111	655.350000
801.707362	652.922778	716.030556
802.022060	703.894444	689.331111
802.336703	672.340556	691.758333
802.651292	713.603333	655.350000
802.965827	728.166667	735.448333
803.280307	703.894444	682.049444
803.594733	669.913333	716.030556
803.909104	742.730000	699.040000
804.223421	730.593889	767.002222
804.537684	711.176111	669.913333
804.851891	718.457778	674.767778
805.166045	728.166667	786.420000
805.480143	691.758333	682.049444
805.794188	711.176111	716.030556
806.108177	684.476667	723.312222
806.422112	745.157222	701.467222
806.735993	691.758333	706.321667
807.049818	650.495556	754.866111
807.363590	667.486111	725.739444
807.677306	648.068333	708.748889
807.990968	733.021111	737.875556
808.304575	720.885000	691.758333
808.618128	769.429444	662.631667
808.931625	703.894444	621.368889
809.245068	691.758333	650.495556
809.558457	769.429444	655.350000
809.871790	657.777222	667.486111
810.185069	694.185556	745.157222
810.498293	728.166667	696.612778
810.811462	694.185556	701.467222
811.124576	689.331111	662.631667
811.437636	694.185556	686.903889
811.750640	759.720556	657.777222
812.063590	803.410556	679.622222
812.376485	650.495556	682.049444
812.689325	689.331111	669.913333
813.002110	713.603333	708.748889
813.314840	648.068333	706.321667
813.627516	885.936111	866.518333
813.940136	771.856667	774.283889
814.252701	677.195000	728.166667
814.565212	662.631667	720.885000
814.877667	689.331111	689.331111
815.190067	737.875556	708.748889
815.502413	650.495556	645.641111
815.814703	735.448333	769.429444
816.126938	696.612778	716.030556
816.439118	684.476667	660.204444
816.751243	652.922778	708.748889
817.063313	643.213889	735.448333
817.375328	682.049444	684.476667
817.687287	740.302778	696.612778
817.999192	691.758333	767.002222
818.311041	691.758333	665.058889
818.622835	745.157222	665.058889
818.934574	667.486111	674.767778
819.246258	737.875556	674.767778
819.557887	672.340556	735.448333
819.869460	728.166667	672.340556
820.180978	684.476667	660.204444
820.492441	667.486111	689.331111
820.803848	618.941667	767.002222
821.115200	672.340556	696.612778
821.426497	718.457778	696.612778
821.737739	650.495556	725.739444
822.048925	674.767778	691.758333
822.360056	684.476667	771.856667
822.671131	696.612778	706.321667
822.982151	696.612778	699.040000
823.293116	711.176111	631.077778
823.604025	667.486111	733.021111
823.914879	706.321667	679.622222
824.225677	669.913333	747.584444
824.536420	711.176111	694.185556
824.847107	682.049444	723.312222
825.157739	655.350000	713.603333
825.468315	682.049444	699.040000
825.778836	638.359444	747.584444
826.089301	742.730000	800.983333
826.399711	665.058889	691.758333
826.710065	713.603333	689.331111
827.020363	684.476667	711.176111
827.330606	723.312222	699.040000
827.640794	699.040000	689.331111
827.950925	665.058889	706.321667
828.261001	723.312222	752.438889
828.571022	696.612778	691.758333
828.880986	689.331111	665.058889
829.190895	703.894444	645.641111
829.500749	694.185556	626.223333
829.810546	737.875556	730.593889
830.120288	764.575000	757.293333
830.429974	635.932222	737.875556
830.739604	686.903889	711.176111
831.049179	720.885000	706.321667
831.358697	679.622222	660.204444
831.668160	708.748889	701.467222
831.977567	735.448333	718.457778
832.286918	728.166667	740.302778
832.596213	684.476667	682.049444
832.905453	674.767778	752.438889
833.214636	706.321667	631.077778
833.523764	750.011667	706.321667
833.832836	706.321667	723.312222
834.141851	682.049444	703.894444
834.450811	691.758333	725.739444
834.759715	696.612778	686.903889
835.068563	645.641111	742.730000
835.377355	669.913333	725.739444
835.686091	696.612778	706.321667
835.994770	665.058889	686.903889
836.303394	745.157222	679.622222
836.611962	689.331111	711.176111
836.920473	677.195000	696.612778
837.228929	696.612778	674.767778
837.537328	711.176111	616.514444
837.845672	655.350000	684.476667
838.153959	684.476667	689.331111
838.462190	684.476667	655.350000
838.770365	689.331111	643.213889
839.078483	696.612778	638.359444
839.386546	696.612778	660.204444
839.694552	694.185556	665.058889
840.002502	716.030556	723.312222
840.310396	733.021111	718.457778
840.618233	708.748889	699.040000
840.926015	679.622222	754.866111
841.233739	677.195000	735.448333
841.541408	720.885000	665.058889
841.849020	606.805556	645.641111
842.156576	657.777222	716.030556
842.464076	686.903889	662.631667
842.771519	667.486111	691.758333
843.078906	718.457778	696.612778
843.386237	701.467222	723.312222
843.693511	703.894444	730.593889
844.000729	684.476667	713.603333
844.307890	713.603333	665.058889
844.614995	737.875556	730.593889
844.922043	660.204444	718.457778
845.229035	708.748889	686.903889
845.535970	737.875556	660.204444
845.842849	725.739444	669.913333
846.149671	606.805556	650.495556
846.456437	655.350000	655.350000
846.763146	648.068333	733.021111
847.069799	682.049444	674.767778
847.376395	754.866111	626.223333
847.682934	730.593889	657.777222
847.989417	718.457778	706.321667
848.295843	662.631667	711.176111
848.602213	684.476667	638.359444
848.908526	716.030556	609.232778
849.214782	696.612778	621.368889
849.520981	689.331111	699.040000
849.827124	774.283889	677.195000
850.133210	682.049444	699.040000
850.439239	699.040000	674.767778
850.745212	699.040000	665.058889
851.051128	701.467222	665.058889
851.356987	686.903889	648.068333
851.662789	689.331111	640.786667
851.968534	674.767778	677.195000
852.274223	740.302778	689.331111
852.579854	638.359444	652.922778
852.885429	711.176111	694.185556
853.190947	703.894444	720.885000
853.496408	703.894444	660.204444
853.801812	640.786667	793.701667
854.107160	718.457778	701.467222
854.412450	672.340556	645.641111
854.717683	696.612778	682.049444
855.022859	672.340556	672.340556
855.327979	662.631667	672.340556
855.633041	699.040000	742.730000
855.938046	716.030556	716.030556
856.242995	604.378333	711.176111
856.547886	696.612778	706.321667
856.852720	650.495556	699.040000
857.157497	665.058889	677.195000
857.462217	677.195000	694.185556
857.766880	672.340556	684.476667
858.071486	645.641111	684.476667
858.376035	764.575000	635.932222
858.680526	716.030556	669.913333
858.984961	740.302778	720.885000
859.289338	708.748889	677.195000
859.593658	735.448333	783.992778
859.897921	667.486111	708.748889
860.202126	662.631667	699.040000
860.506275	689.331111	655.350000
860.810366	699.040000	696.612778
861.114399	674.767778	699.040000
861.418376	679.622222	771.856667
861.722295	703.894444	745.157222
862.026157	742.730000	723.312222
862.329961	703.894444	631.077778
862.633709	728.166667	735.448333
862.937398	674.767778	667.486111
863.241031	747.584444	703.894444
863.544606	759.720556	696.612778
863.848124	616.514444	730.593889
864.151584	672.340556	650.495556
864.454987	652.922778	684.476667
864.758332	711.176111	701.467222
865.061620	735.448333	652.922778
865.364850	672.340556	759.720556
865.668023	699.040000	716.030556
865.971138	708.748889	703.894444
866.274196	742.730000	725.739444
866.577196	650.495556	669.913333
866.880139	667.486111	614.087222
867.183024	677.195000	703.894444
867.485852	752.438889	679.622222
867.788622	703.894444	689.331111
868.091334	723.312222	701.467222
868.393989	696.612778	648.068333
868.696586	660.204444	684.476667
868.999125	667.486111	742.730000
869.301607	674.767778	640.786667
869.604031	747.584444	689.331111
869.906397	689.331111	699.040000
870.208706	769.429444	650.495556
870.510957	669.913333	672.340556
870.813150	672.340556	614.087222
871.115285	628.650556	701.467222
871.417363	745.157222	679.622222
871.719382	655.350000	713.603333
872.021344	689.331111	716.030556
872.323248	701.467222	728.166667
872.625094	652.922778	684.476667
872.926883	652.922778	638.359444
873.228613	708.748889	696.612778
873.530286	703.894444	728.166667
873.831900	694.185556	674.767778
874.133457	716.030556	699.040000
874.434956	701.467222	767.002222
874.736397	691.758333	703.894444
875.037780	682.049444	725.739444
875.339105	742.730000	677.195000
875.640371	767.002222	733.021111
875.941580	689.331111	720.885000
876.242731	733.021111	665.058889
876.543824	762.147778	643.213889
876.844859	728.166667	706.321667
877.145835	643.213889	701.467222
877.446754	679.622222	735.448333
877.747614	699.040000	672.340556
878.048417	691.758333	616.514444
878.349161	706.321667	728.166667
878.649847	677.195000	677.195000
878.950475	674.767778	682.049444
879.251045	730.593889	711.176111
879.551556	754.866111	699.040000
879.852010	699.040000	723.312222
880.152405	599.523889	703.894444
880.452741	699.040000	686.903889
880.753020	669.913333	718.457778
881.053240	677.195000	752.438889
881.353402	684.476667	633.505000
881.653506	730.593889	684.476667
881.953552	684.476667	728.166667
882.253539	701.467222	686.903889
882.553467	618.941667	672.340556
882.853338	701.467222	682.049444
883.153150	689.331111	672.340556
883.452903	706.321667	703.894444
883.752598	691.758333	699.040000
884.052235	677.195000	706.321667
884.351814	686.903889	684.476667
884.651333	737.875556	696.612778
884.950795	754.866111	665.058889
885.250198	733.021111	672.340556
885.549542	701.467222	677.195000
885.848828	677.195000	631.077778
886.148055	609.232778	735.448333
886.447224	733.021111	708.748889
886.746335	657.777222	669.913333
887.045386	708.748889	665.058889
887.344379	762.147778	682.049444
887.643314	655.350000	689.331111
887.942190	718.457778	725.739444
888.241007	716.030556	701.467222
888.539766	718.457778	723.312222
888.838465	718.457778	667.486111
889.137107	667.486111	718.457778
889.435689	713.603333	696.612778
889.734213	672.340556	696.612778
890.032678	696.612778	699.040000
890.331085	635.932222	720.885000
