wavelength	74.466417	73.993095

185.839229	601.951111	538.843333
186.225573	618.941667	558.261111
186.611889	558.261111	601.951111
186.998176	563.115556	652.922778
187.384436	638.359444	604.378333
187.770668	563.115556	592.242222
188.156871	628.650556	626.223333
188.543046	616.514444	597.096667
188.929193	599.523889	638.359444
189.315312	572.824444	623.796111
189.701403	648.068333	597.096667
190.087466	626.223333	657.777222
190.473500	660.204444	713.603333
190.859506	689.331111	611.660000
191.245484	684.476667	614.087222
191.631434	652.922778	713.603333
192.017355	723.312222	684.476667
192.403248	686.903889	694.185556
192.789113	730.593889	597.096667
193.174949	650.495556	691.758333
193.560757	648.068333	730.593889
193.946537	674.767778	684.476667
194.332288	696.612778	686.903889
194.718011	618.941667	667.486111
195.103705	708.748889	691.758333
195.489371	665.058889	648.068333
195.875009	686.903889	708.748889
196.260618	711.176111	708.748889
196.646199	638.359444	791.274444
197.031751	672.340556	699.040000
197.417275	708.748889	682.049444
197.802771	728.166667	674.767778
198.188237	660.204444	638.359444
198.573676	665.058889	713.603333
198.959085	696.612778	725.739444
199.344466	672.340556	640.786667
199.729819	691.758333	742.730000
200.115143	689.331111	694.185556
200.500438	718.457778	638.359444
200.885705	650.495556	638.359444
201.270943	652.922778	691.758333
201.656152	696.612778	740.302778
202.041333	694.185556	655.350000
202.426485	643.213889	735.448333
202.811608	725.739444	750.011667
203.196703	669.913333	655.350000
203.581769	708.748889	672.340556
203.966806	660.204444	730.593889
204.351814	740.302778	720.885000
204.736794	623.796111	618.941667
205.121745	665.058889	618.941667
205.506667	628.650556	674.767778
205.891560	665.058889	711.176111
206.276424	689.331111	597.096667
206.661260	648.068333	689.331111
207.046066	689.331111	737.875556
207.430844	740.302778	628.650556
207.815593	662.631667	655.350000
208.200313	674.767778	662.631667
208.585003	701.467222	713.603333
208.969665	711.176111	684.476667
209.354299	689.331111	657.777222
209.738903	701.467222	716.030556
210.123478	767.002222	674.767778
210.508024	691.758333	691.758333
210.892541	691.758333	701.467222
211.277029	737.875556	694.185556
211.661488	669.913333	740.302778
212.045918	694.185556	662.631667
212.430318	689.331111	686.903889
212.814690	684.476667	665.058889
213.199033	669.913333	701.467222
213.583346	728.166667	662.631667
213.967631	677.195000	684.476667
214.351886	643.213889	635.932222
214.736112	677.195000	706.321667
215.120309	682.049444	626.223333
215.504476	614.087222	708.748889
215.888615	706.321667	667.486111
216.272724	667.486111	686.903889
216.656804	657.777222	742.730000
217.040854	643.213889	662.631667
217.424876	701.467222	672.340556
217.808868	733.021111	733.021111
218.192830	640.786667	723.312222
218.576764	650.495556	648.068333
218.960668	674.767778	621.368889
219.344543	711.176111	660.204444
219.728388	708.748889	597.096667
220.112204	655.350000	645.641111
220.495991	660.204444	716.030556
220.879748	764.575000	645.641111
221.263476	699.040000	655.350000
221.647174	703.894444	701.467222
222.030843	672.340556	708.748889
222.414482	635.932222	713.603333
222.798092	662.631667	682.049444
223.181672	703.894444	618.941667
223.565223	650.495556	682.049444
223.948744	677.195000	679.622222
224.332236	580.106111	718.457778
224.715698	696.612778	725.739444
225.099131	686.903889	660.204444
225.482534	628.650556	677.195000
225.865907	650.495556	650.495556
226.249251	703.894444	723.312222
226.632565	730.593889	728.166667
227.015850	723.312222	694.185556
227.399104	616.514444	696.612778
227.782329	645.641111	679.622222
228.165525	691.758333	682.049444
228.548691	674.767778	711.176111
228.931827	694.185556	665.058889
229.314933	677.195000	667.486111
229.698009	638.359444	594.669444
230.081056	682.049444	723.312222
230.464073	699.040000	691.758333
230.847060	718.457778	703.894444
231.230017	694.185556	686.903889
231.612944	660.204444	609.232778
231.995842	706.321667	650.495556
232.378709	718.457778	745.157222
232.761547	696.612778	696.612778
233.144355	737.875556	684.476667
233.527133	662.631667	747.584444
233.909881	682.049444	706.321667
234.292599	730.593889	662.631667
234.675287	667.486111	691.758333
235.057945	623.796111	633.505000
235.440574	665.058889	703.894444
235.823172	728.166667	677.195000
236.205740	691.758333	679.622222
236.588278	677.195000	689.331111
236.970786	750.011667	691.758333
237.353264	645.641111	631.077778
237.735712	701.467222	655.350000
238.118130	679.622222	674.767778
238.500517	652.922778	597.096667
238.882875	662.631667	645.641111
239.265202	728.166667	621.368889
239.647499	650.495556	657.777222
240.029767	711.176111	771.856667
240.412003	667.486111	672.340556
240.794210	667.486111	699.040000
241.176387	694.185556	706.321667
241.558533	652.922778	682.049444
241.940649	723.312222	672.340556
242.322734	701.467222	716.030556
242.704790	677.195000	643.213889
243.086815	669.913333	665.058889
243.468810	674.767778	696.612778
243.850774	679.622222	723.312222
244.232709	694.185556	616.514444
244.614612	750.011667	752.438889
244.996486	628.650556	723.312222
245.378329	631.077778	635.932222
245.760142	679.622222	677.195000
246.141924	682.049444	652.922778
246.523676	655.350000	655.350000
246.905397	699.040000	694.185556
247.287088	711.176111	703.894444
247.668748	648.068333	662.631667
248.050378	657.777222	652.922778
248.431978	767.002222	682.049444
248.813547	662.631667	645.641111
249.195085	725.739444	701.467222
249.576593	701.467222	752.438889
249.958070	728.166667	694.185556
250.339517	713.603333	730.593889
250.720933	703.894444	667.486111
251.102318	667.486111	650.495556
251.483673	609.232778	689.331111
251.864997	718.457778	652.922778
252.246291	686.903889	689.331111
252.627554	650.495556	699.040000
253.008786	691.758333	628.650556
253.389987	650.495556	696.612778
253.771158	650.495556	635.932222
254.152298	674.767778	669.913333
254.533408	691.758333	730.593889
254.914486	679.622222	691.758333
255.295534	703.894444	662.631667
255.676551	660.204444	660.204444
256.057537	643.213889	686.903889
256.438492	652.922778	645.641111
256.819417	669.913333	652.922778
257.200310	740.302778	686.903889
257.581173	754.866111	699.040000
257.962005	633.505000	667.486111
258.342806	742.730000	657.777222
258.723576	699.040000	716.030556
259.104315	701.467222	618.941667
259.485023	667.486111	631.077778
259.865700	611.660000	696.612778
260.246347	682.049444	699.040000
260.626962	672.340556	677.195000
261.007546	708.748889	604.378333
261.388099	718.457778	701.467222
261.768621	735.448333	716.030556
262.149112	645.641111	711.176111
262.529573	730.593889	682.049444
262.910002	674.767778	723.312222
263.290399	631.077778	701.467222
263.670766	672.340556	689.331111
264.051102	757.293333	667.486111
264.431406	725.739444	655.350000
264.811680	662.631667	674.767778
265.191922	703.894444	652.922778
265.572133	677.195000	682.049444
265.952313	733.021111	650.495556
266.332461	682.049444	750.011667
266.712578	682.049444	672.340556
267.092665	665.058889	672.340556
267.472719	701.467222	631.077778
267.852743	604.378333	650.495556
268.232735	691.758333	728.166667
268.612696	703.894444	679.622222
268.992626	699.040000	667.486111
269.372524	669.913333	655.350000
269.752391	759.720556	764.575000
270.132226	788.847222	684.476667
270.512030	767.002222	689.331111
270.891803	611.660000	776.711111
271.271545	728.166667	669.913333
271.651255	703.894444	701.467222
272.030933	677.195000	674.767778
272.410580	652.922778	728.166667
272.790196	703.894444	694.185556
273.169780	645.641111	652.922778
273.549332	706.321667	645.641111
273.928853	684.476667	689.331111
274.308343	716.030556	643.213889
274.687800	643.213889	716.030556
275.067227	703.894444	699.040000
275.446622	716.030556	718.457778
275.825985	706.321667	742.730000
276.205316	648.068333	657.777222
276.584616	667.486111	606.805556
276.963885	667.486111	701.467222
277.343121	728.166667	616.514444
277.722326	703.894444	723.312222
278.101499	679.622222	669.913333
278.480641	691.758333	633.505000
278.859751	723.312222	682.049444
279.238829	682.049444	703.894444
279.617875	711.176111	633.505000
279.996890	703.894444	696.612778
280.375873	672.340556	742.730000
280.754824	716.030556	720.885000
281.133743	733.021111	689.331111
281.512631	728.166667	735.448333
281.891486	665.058889	699.040000
282.270310	745.157222	713.603333
282.649102	723.312222	679.622222
283.027862	657.777222	735.448333
283.406590	631.077778	694.185556
283.785286	737.875556	618.941667
284.163950	725.739444	691.758333
284.542582	706.321667	718.457778
284.921183	679.622222	628.650556
285.299751	682.049444	643.213889
285.678287	737.875556	633.505000
286.056792	689.331111	720.885000
286.435264	713.603333	689.331111
286.813704	696.612778	672.340556
287.192112	716.030556	691.758333
287.570489	638.359444	691.758333
287.948833	694.185556	657.777222
288.327145	718.457778	793.701667
288.705425	645.641111	752.438889
289.083672	674.767778	699.040000
289.461888	679.622222	672.340556
289.840071	708.748889	696.612778
290.218223	638.359444	689.331111
290.596342	699.040000	635.932222
290.974429	660.204444	657.777222
291.352483	711.176111	735.448333
291.730506	633.505000	665.058889
292.108496	621.368889	689.331111
292.486454	750.011667	667.486111
292.864379	737.875556	682.049444
293.242273	645.641111	669.913333
293.620134	701.467222	735.448333
293.997963	728.166667	718.457778
294.375759	662.631667	720.885000
294.753523	706.321667	740.302778
295.131255	701.467222	733.021111
295.508954	735.448333	713.603333
295.886621	699.040000	628.650556
296.264255	774.283889	808.265000
296.641857	674.767778	643.213889
297.019427	689.331111	699.040000
297.396964	694.185556	701.467222
297.774469	696.612778	694.185556
298.151941	667.486111	655.350000
298.529380	643.213889	740.302778
298.906788	645.641111	725.739444
299.284162	674.767778	757.293333
299.661504	696.612778	735.448333
300.038814	725.739444	623.796111
300.416090	638.359444	657.777222
300.793335	696.612778	740.302778
301.170546	667.486111	660.204444
301.547726	640.786667	667.486111
301.924872	759.720556	677.195000
302.301986	723.312222	645.641111
302.679067	599.523889	703.894444
303.056115	674.767778	648.068333
303.433131	696.612778	635.932222
303.810114	650.495556	628.650556
304.187064	745.157222	725.739444
304.563982	701.467222	677.195000
304.940866	686.903889	696.612778
305.317718	720.885000	706.321667
305.694537	638.359444	691.758333
306.071324	674.767778	650.495556
306.448077	725.739444	638.359444
306.824798	800.983333	742.730000
307.201486	699.040000	723.312222
307.578141	691.758333	657.777222
307.954763	679.622222	660.204444
308.331352	657.777222	662.631667
308.707908	723.312222	662.631667
309.084432	735.448333	735.448333
309.460922	672.340556	694.185556
309.837379	686.903889	689.331111
310.213804	667.486111	660.204444
310.590195	643.213889	706.321667
310.966554	718.457778	672.340556
311.342879	665.058889	628.650556
311.719172	723.312222	657.777222
312.095431	706.321667	703.894444
312.471657	677.195000	674.767778
312.847851	696.612778	745.157222
313.224011	691.758333	672.340556
313.600138	684.476667	783.992778
313.976232	572.824444	711.176111
314.352292	718.457778	730.593889
314.728320	662.631667	735.448333
315.104314	708.748889	701.467222
315.480275	691.758333	667.486111
315.856203	694.185556	716.030556
316.232098	733.021111	696.612778
316.607960	779.138333	669.913333
316.983788	679.622222	635.932222
317.359583	742.730000	689.331111
317.735345	684.476667	655.350000
318.111073	699.040000	650.495556
318.486769	686.903889	711.176111
318.862430	718.457778	672.340556
319.238059	737.875556	682.049444
319.613654	599.523889	730.593889
319.989216	626.223333	733.021111
320.364744	711.176111	599.523889
320.740239	672.340556	677.195000
321.115701	623.796111	716.030556
321.491129	686.903889	662.631667
321.866524	633.505000	645.641111
322.241885	657.777222	703.894444
322.617213	633.505000	648.068333
322.992507	652.922778	754.866111
323.367768	730.593889	650.495556
323.742995	735.448333	696.612778
324.118189	674.767778	645.641111
324.493349	682.049444	713.603333
324.868475	742.730000	665.058889
325.243568	694.185556	711.176111
325.618628	682.049444	682.049444
325.993654	643.213889	652.922778
326.368646	638.359444	677.195000
326.743604	735.448333	769.429444
327.118529	689.331111	616.514444
327.493421	737.875556	643.213889
327.868278	682.049444	677.195000
328.243102	665.058889	689.331111
328.617892	648.068333	706.321667
328.992648	684.476667	684.476667
329.367371	691.758333	720.885000
329.742060	691.758333	682.049444
330.116715	669.913333	696.612778
330.491336	701.467222	703.894444
330.865924	701.467222	669.913333
331.240477	718.457778	628.650556
331.614997	669.913333	689.331111
331.989483	716.030556	614.087222
332.363935	672.340556	691.758333
332.738354	655.350000	606.805556
333.112738	733.021111	689.331111
333.487088	713.603333	742.730000
333.861405	650.495556	631.077778
334.235687	701.467222	699.040000
334.609936	657.777222	633.505000
334.984150	618.941667	682.049444
335.358331	694.185556	711.176111
335.732478	684.476667	771.856667
336.106590	720.885000	701.467222
336.480669	662.631667	674.767778
336.854713	669.913333	706.321667
337.228724	708.748889	689.331111
337.602700	696.612778	747.584444
337.976642	757.293333	779.138333
338.350550	674.767778	686.903889
338.724424	643.213889	752.438889
339.098264	682.049444	733.021111
339.472070	628.650556	686.903889
339.845842	716.030556	742.730000
340.219579	706.321667	798.556111
340.593282	650.495556	708.748889
340.966951	686.903889	725.739444
341.340586	648.068333	652.922778
341.714186	643.213889	621.368889
342.087752	665.058889	708.748889
342.461284	699.040000	648.068333
342.834782	667.486111	604.378333
343.208245	672.340556	728.166667
343.581674	750.011667	662.631667
343.955069	703.894444	648.068333
344.328429	662.631667	665.058889
344.701755	689.331111	682.049444
345.075047	706.321667	706.321667
345.448304	667.486111	674.767778
345.821526	699.040000	662.631667
346.194715	694.185556	723.312222
346.567869	672.340556	718.457778
346.940988	682.049444	672.340556
347.314073	713.603333	650.495556
347.687123	682.049444	667.486111
348.060139	660.204444	733.021111
348.433121	735.448333	747.584444
348.806067	686.903889	643.213889
349.178980	657.777222	742.730000
349.551858	759.720556	689.331111
349.924701	682.049444	699.040000
350.297509	694.185556	660.204444
350.670283	638.359444	716.030556
351.043023	694.185556	703.894444
351.415727	682.049444	657.777222
351.788397	655.350000	696.612778
352.161033	677.195000	725.739444
352.533633	699.040000	779.138333
352.906199	682.049444	718.457778
353.278731	699.040000	723.312222
353.651227	648.068333	635.932222
354.023689	648.068333	737.875556
354.396116	645.641111	701.467222
354.768508	711.176111	696.612778
355.140866	703.894444	650.495556
355.513188	694.185556	679.622222
355.885476	694.185556	679.622222
356.257729	696.612778	703.894444
356.629947	694.185556	638.359444
357.002130	694.185556	638.359444
357.374279	742.730000	689.331111
357.746392	584.960556	713.603333
358.118471	720.885000	740.302778
358.490514	657.777222	623.796111
358.862523	689.331111	706.321667
359.234497	771.856667	733.021111
359.606436	728.166667	723.312222
359.978339	694.185556	713.603333
360.350208	728.166667	742.730000
360.722042	686.903889	657.777222
361.093841	667.486111	674.767778
361.465604	655.350000	616.514444
361.837333	769.429444	665.058889
362.209026	665.058889	657.777222
362.580685	740.302778	735.448333
362.952308	672.340556	701.467222
363.323896	694.185556	720.885000
363.695449	706.321667	718.457778
364.066967	621.368889	716.030556
364.438450	728.166667	655.350000
364.809897	699.040000	638.359444
365.181310	725.739444	686.903889
365.552687	696.612778	691.758333
365.924028	713.603333	735.448333
366.295335	648.068333	745.157222
366.666606	657.777222	689.331111
367.037842	662.631667	686.903889
367.409043	665.058889	689.331111
367.780209	650.495556	677.195000
368.151339	691.758333	742.730000
368.522434	694.185556	740.302778
368.893493	762.147778	689.331111
369.264517	699.040000	614.087222
369.635506	684.476667	735.448333
370.006459	706.321667	711.176111
370.377377	723.312222	672.340556
370.748260	679.622222	757.293333
371.119107	716.030556	691.758333
371.489918	665.058889	706.321667
371.860694	737.875556	694.185556
372.231435	737.875556	689.331111
372.602140	633.505000	677.195000
372.972809	733.021111	716.030556
373.343444	638.359444	665.058889
373.714042	652.922778	694.185556
374.084605	754.866111	660.204444
374.455132	747.584444	674.767778
374.825624	723.312222	650.495556
375.196080	694.185556	713.603333
375.566501	718.457778	728.166667
375.936885	737.875556	611.660000
376.307235	667.486111	677.195000
376.677548	674.767778	711.176111
377.047826	669.913333	662.631667
377.418068	706.321667	699.040000
377.788275	701.467222	677.195000
378.158445	667.486111	689.331111
378.528580	699.040000	752.438889
378.898679	691.758333	672.340556
379.268743	771.856667	682.049444
379.638770	716.030556	699.040000
380.008762	699.040000	686.903889
380.378718	621.368889	677.195000
380.748638	689.331111	638.359444
381.118523	669.913333	682.049444
381.488371	652.922778	733.021111
381.858184	652.922778	684.476667
382.227960	701.467222	706.321667
382.597701	628.650556	677.195000
382.967406	703.894444	733.021111
383.337075	682.049444	689.331111
383.706708	667.486111	703.894444
384.076304	701.467222	723.312222
384.445865	657.777222	645.641111
384.815390	718.457778	718.457778
385.184879	638.359444	682.049444
385.554332	689.331111	691.758333
385.923749	735.448333	682.049444
386.293130	762.147778	706.321667
386.662474	713.603333	657.777222
387.031783	725.739444	701.467222
387.401055	686.903889	708.748889
387.770292	643.213889	718.457778
388.139492	665.058889	674.767778
388.508656	686.903889	725.739444
388.877784	703.894444	682.049444
389.246876	662.631667	674.767778
389.615931	679.622222	708.748889
389.984950	718.457778	713.603333
390.353933	716.030556	674.767778
390.722880	635.932222	684.476667
391.091791	689.331111	672.340556
391.460665	699.040000	643.213889
391.829503	682.049444	674.767778
392.198304	677.195000	584.960556
392.567070	682.049444	669.913333
392.935799	694.185556	665.058889
393.304491	750.011667	733.021111
393.673148	694.185556	771.856667
394.041768	640.786667	652.922778
394.410351	725.739444	657.777222
394.778898	677.195000	669.913333
395.147409	606.805556	696.612778
395.515883	703.894444	708.748889
395.884321	674.767778	733.021111
396.252722	686.903889	682.049444
396.621087	669.913333	716.030556
396.989415	669.913333	703.894444
397.357707	718.457778	706.321667
397.725962	682.049444	699.040000
398.094181	667.486111	645.641111
398.462363	694.185556	713.603333
398.830508	677.195000	682.049444
399.198617	764.575000	686.903889
399.566689	669.913333	662.631667
399.934725	703.894444	691.758333
400.302724	657.777222	645.641111
400.670687	684.476667	713.603333
401.038612	669.913333	691.758333
401.406501	662.631667	672.340556
401.774354	679.622222	699.040000
402.142169	628.650556	638.359444
402.509948	696.612778	713.603333
402.877690	696.612778	616.514444
403.245396	650.495556	699.040000
403.613064	657.777222	626.223333
403.980696	699.040000	728.166667
404.348291	691.758333	633.505000
404.715849	735.448333	713.603333
405.083370	669.913333	648.068333
405.450855	655.350000	716.030556
405.818303	652.922778	677.195000
406.185713	665.058889	735.448333
406.553087	584.960556	711.176111
406.920424	754.866111	667.486111
407.287724	635.932222	711.176111
407.654987	684.476667	686.903889
408.022213	745.157222	757.293333
408.389402	733.021111	694.185556
408.756554	750.011667	713.603333
409.123669	679.622222	660.204444
409.490748	665.058889	614.087222
409.857789	640.786667	716.030556
410.224793	694.185556	669.913333
410.591760	643.213889	684.476667
410.958689	594.669444	660.204444
411.325582	742.730000	691.758333
411.692438	718.457778	648.068333
412.059256	706.321667	650.495556
412.426038	689.331111	674.767778
412.792782	652.922778	667.486111
413.159489	757.293333	762.147778
413.526159	737.875556	703.894444
413.892792	677.195000	669.913333
414.259387	645.641111	684.476667
414.625945	716.030556	623.796111
414.992466	686.903889	691.758333
415.358950	757.293333	677.195000
415.725396	655.350000	720.885000
416.091806	662.631667	699.040000
416.458177	655.350000	713.603333
416.824512	699.040000	592.242222
417.190809	679.622222	621.368889
417.557069	796.128889	720.885000
417.923291	667.486111	686.903889
418.289476	711.176111	771.856667
418.655624	696.612778	679.622222
419.021734	783.992778	718.457778
419.387807	650.495556	701.467222
419.753843	691.758333	662.631667
420.119841	674.767778	667.486111
420.485801	686.903889	684.476667
420.851724	672.340556	752.438889
421.217609	672.340556	643.213889
421.583457	655.350000	703.894444
421.949268	711.176111	686.903889
422.315041	616.514444	660.204444
422.680776	686.903889	682.049444
423.046474	667.486111	686.903889
423.412134	643.213889	665.058889
423.777756	701.467222	684.476667
424.143341	652.922778	745.157222
424.508888	648.068333	720.885000
424.874398	623.796111	633.505000
425.239870	638.359444	733.021111
425.605304	708.748889	643.213889
425.970701	694.185556	665.058889
426.336059	711.176111	638.359444
426.701381	643.213889	686.903889
427.066664	677.195000	691.758333
427.431909	684.476667	682.049444
427.797117	667.486111	689.331111
428.162287	621.368889	699.040000
428.527419	703.894444	691.758333
428.892514	667.486111	660.204444
429.257570	623.796111	669.913333
429.622589	682.049444	677.195000
429.987570	703.894444	645.641111
430.352513	679.622222	679.622222
430.717418	701.467222	652.922778
431.082285	703.894444	708.748889
431.447114	674.767778	669.913333
431.811905	762.147778	667.486111
432.176659	648.068333	689.331111
432.541374	694.185556	747.584444
432.906051	679.622222	672.340556
433.270691	660.204444	672.340556
433.635292	686.903889	737.875556
433.999855	699.040000	725.739444
434.364380	679.622222	701.467222
434.728867	679.622222	703.894444
435.093317	718.457778	716.030556
435.457728	711.176111	684.476667
435.822100	679.622222	711.176111
436.186435	628.650556	718.457778
436.550732	677.195000	643.213889
436.914990	728.166667	713.603333
437.279210	684.476667	745.157222
437.643392	706.321667	725.739444
438.007536	733.021111	757.293333
438.371642	725.739444	701.467222
438.735709	638.359444	701.467222
439.099739	699.040000	672.340556
439.463730	716.030556	737.875556
439.827682	691.758333	667.486111
440.191597	728.166667	669.913333
440.555473	694.185556	720.885000
440.919310	694.185556	677.195000
441.283110	682.049444	723.312222
441.646871	645.641111	747.584444
442.010593	730.593889	699.040000
442.374278	662.631667	691.758333
442.737924	655.350000	623.796111
443.101531	631.077778	742.730000
443.465100	672.340556	667.486111
443.828631	737.875556	703.894444
444.192123	667.486111	689.331111
444.555577	730.593889	669.913333
444.918992	684.476667	696.612778
445.282368	716.030556	652.922778
445.645707	691.758333	650.495556
446.009006	711.176111	665.058889
446.372267	662.631667	694.185556
446.735490	694.185556	686.903889
447.098674	674.767778	691.758333
447.461819	655.350000	713.603333
447.824926	635.932222	643.213889
448.187994	648.068333	640.786667
448.551023	694.185556	735.448333
448.914014	750.011667	730.593889
449.276966	674.767778	699.040000
449.639880	618.941667	667.486111
450.002754	757.293333	669.913333
450.365590	674.767778	694.185556
450.728388	643.213889	733.021111
451.091146	682.049444	684.476667
451.453866	718.457778	733.021111
451.816547	728.166667	810.692222
452.179189	667.486111	718.457778
452.541793	691.758333	699.040000
452.904357	672.340556	667.486111
453.266883	689.331111	686.903889
453.629370	706.321667	684.476667
453.991818	662.631667	745.157222
454.354227	696.612778	665.058889
454.716597	672.340556	674.767778
455.078929	645.641111	679.622222
455.441221	667.486111	621.368889
455.803475	652.922778	694.185556
456.165689	611.660000	805.837778
456.527865	660.204444	691.758333
456.890001	711.176111	689.331111
457.252099	711.176111	599.523889
457.614157	723.312222	655.350000
457.976177	742.730000	720.885000
458.338157	667.486111	752.438889
458.700099	655.350000	648.068333
459.062001	737.875556	655.350000
459.423864	691.758333	754.866111
459.785688	679.622222	713.603333
460.147473	682.049444	730.593889
460.509219	648.068333	674.767778
460.870926	684.476667	701.467222
461.232593	633.505000	769.429444
461.594221	648.068333	691.758333
461.955810	737.875556	720.885000
462.317360	716.030556	720.885000
462.678871	669.913333	703.894444
463.040342	691.758333	616.514444
463.401775	667.486111	635.932222
463.763167	691.758333	674.767778
464.124521	682.049444	686.903889
464.485835	633.505000	711.176111
464.847110	652.922778	631.077778
465.208346	679.622222	713.603333
465.569542	665.058889	723.312222
465.930699	694.185556	716.030556
466.291817	684.476667	684.476667
466.652895	750.011667	716.030556
467.013933	703.894444	718.457778
467.374933	716.030556	713.603333
467.735892	694.185556	665.058889
468.096813	730.593889	699.040000
468.457694	696.612778	601.951111
468.818535	733.021111	745.157222
469.179337	740.302778	711.176111
469.540099	648.068333	708.748889
469.900822	718.457778	674.767778
470.261506	725.739444	718.457778
470.622149	723.312222	716.030556
470.982753	635.932222	703.894444
471.343318	662.631667	752.438889
471.703843	706.321667	679.622222
472.064328	762.147778	662.631667
472.424774	723.312222	735.448333
472.785180	686.903889	711.176111
473.145546	650.495556	703.894444
473.505873	691.758333	696.612778
473.866160	638.359444	633.505000
474.226407	662.631667	672.340556
474.586615	657.777222	694.185556
474.946783	677.195000	723.312222
475.306911	716.030556	623.796111
475.666999	660.204444	655.350000
476.027047	720.885000	711.176111
476.387056	679.622222	745.157222
476.747025	728.166667	764.575000
477.106954	757.293333	701.467222
477.466843	737.875556	660.204444
477.826692	747.584444	718.457778
478.186502	677.195000	725.739444
478.546271	640.786667	750.011667
478.906001	706.321667	682.049444
479.265690	699.040000	713.603333
479.625340	716.030556	689.331111
479.984950	718.457778	694.185556
480.344519	640.786667	621.368889
480.704049	733.021111	672.340556
481.063539	711.176111	747.584444
481.422989	767.002222	703.894444
481.782398	669.913333	694.185556
482.141768	725.739444	769.429444
482.501098	674.767778	652.922778
482.860387	604.378333	725.739444
483.219637	655.350000	643.213889
483.578846	667.486111	708.748889
483.938015	701.467222	711.176111
484.297144	672.340556	703.894444
484.656233	725.739444	645.641111
485.015282	696.612778	682.049444
485.374291	703.894444	701.467222
485.733259	699.040000	767.002222
486.092187	701.467222	645.641111
486.451075	635.932222	718.457778
486.809923	686.903889	696.612778
487.168730	672.340556	696.612778
487.527497	701.467222	708.748889
487.886224	711.176111	669.913333
488.244910	677.195000	618.941667
488.603557	713.603333	725.739444
488.962162	708.748889	699.040000
489.320728	691.758333	648.068333
489.679253	783.992778	660.204444
490.037738	699.040000	703.894444
490.396182	711.176111	667.486111
490.754586	728.166667	718.457778
491.112950	750.011667	703.894444
491.471273	696.612778	674.767778
491.829555	754.866111	716.030556
492.187798	645.641111	745.157222
492.545999	701.467222	682.049444
492.904160	728.166667	684.476667
493.262281	703.894444	674.767778
493.620361	672.340556	720.885000
493.978401	662.631667	716.030556
494.336400	750.011667	733.021111
494.694358	720.885000	691.758333
495.052276	716.030556	682.049444
495.410153	740.302778	655.350000
495.767990	701.467222	643.213889
496.125786	747.584444	582.533333
496.483541	791.274444	655.350000
496.841255	742.730000	686.903889
497.198929	665.058889	655.350000
497.556563	703.894444	703.894444
497.914155	660.204444	742.730000
498.271707	725.739444	718.457778
498.629218	696.612778	691.758333
498.986688	728.166667	735.448333
499.344118	708.748889	650.495556
499.701506	660.204444	672.340556
500.058854	691.758333	645.641111
500.416161	665.058889	689.331111
500.773428	771.856667	660.204444
501.130653	711.176111	733.021111
501.487837	711.176111	720.885000
501.844981	769.429444	691.758333
502.202084	657.777222	672.340556
502.559146	682.049444	723.312222
502.916167	638.359444	672.340556
503.273146	718.457778	757.293333
503.630085	655.350000	708.748889
503.986984	679.622222	691.758333
504.343841	684.476667	696.612778
504.700657	648.068333	694.185556
505.057432	803.410556	762.147778
505.414166	708.748889	677.195000
505.770858	757.293333	701.467222
506.127510	645.641111	735.448333
506.484121	706.321667	706.321667
506.840691	635.932222	691.758333
507.197219	708.748889	669.913333
507.553707	701.467222	747.584444
507.910153	677.195000	662.631667
508.266558	701.467222	623.796111
508.622922	701.467222	740.302778
508.979245	657.777222	740.302778
509.335527	762.147778	665.058889
509.691767	723.312222	669.913333
510.047966	665.058889	696.612778
510.404124	764.575000	713.603333
510.760241	706.321667	716.030556
511.116316	708.748889	667.486111
511.472350	764.575000	684.476667
511.828343	706.321667	635.932222
512.184295	694.185556	652.922778
512.540205	689.331111	652.922778
512.896073	699.040000	696.612778
513.251901	737.875556	696.612778
513.607687	669.913333	701.467222
513.963431	635.932222	614.087222
514.319135	711.176111	682.049444
514.674796	720.885000	708.748889
515.030417	679.622222	779.138333
515.385996	689.331111	745.157222
515.741533	737.875556	740.302778
516.097029	723.312222	626.223333
516.452483	713.603333	703.894444
516.807896	740.302778	745.157222
517.163268	599.523889	713.603333
517.518597	771.856667	679.622222
517.873886	672.340556	701.467222
518.229132	638.359444	716.030556
518.584337	652.922778	723.312222
518.939501	665.058889	665.058889
519.294623	665.058889	713.603333
519.649703	674.767778	645.641111
520.004742	660.204444	737.875556
520.359738	679.622222	694.185556
520.714694	686.903889	733.021111
521.069607	667.486111	689.331111
521.424479	747.584444	764.575000
521.779309	708.748889	682.049444
522.134097	667.486111	667.486111
522.488844	701.467222	786.420000
522.843549	674.767778	713.603333
523.198211	720.885000	689.331111
523.552833	720.885000	669.913333
523.907412	750.011667	723.312222
524.261949	682.049444	674.767778
524.616445	628.650556	689.331111
524.970899	706.321667	669.913333
525.325311	730.593889	754.866111
525.679681	682.049444	604.378333
526.034009	674.767778	754.866111
526.388295	767.002222	674.767778
526.742539	706.321667	703.894444
527.096742	747.584444	725.739444
527.450902	689.331111	703.894444
527.805020	696.612778	691.758333
528.159096	759.720556	762.147778
528.513131	640.786667	691.758333
528.867123	735.448333	633.505000
529.221073	706.321667	691.758333
529.574981	774.283889	769.429444
529.928847	650.495556	759.720556
530.282671	750.011667	803.410556
530.636453	849.527778	822.828333
530.990193	900.499444	941.762222
531.343891	796.128889	861.663889
531.697546	796.128889	786.420000
532.051159	762.147778	711.176111
532.404730	686.903889	759.720556
532.758259	733.021111	742.730000
533.111746	689.331111	703.894444
533.465190	677.195000	669.913333
533.818593	711.176111	689.331111
534.171952	701.467222	725.739444
534.525270	694.185556	737.875556
534.878545	703.894444	718.457778
535.231778	694.185556	708.748889
535.584969	708.748889	650.495556
535.938118	774.283889	640.786667
536.291224	609.232778	679.622222
536.644287	701.467222	616.514444
536.997309	716.030556	691.758333
537.350288	660.204444	723.312222
537.703224	803.410556	669.913333
538.056118	667.486111	740.302778
538.408970	669.913333	740.302778
538.761779	703.894444	662.631667
539.114546	689.331111	713.603333
539.467270	694.185556	742.730000
539.819951	665.058889	669.913333
540.172591	723.312222	682.049444
540.525187	689.331111	674.767778
540.877741	635.932222	694.185556
541.230253	786.420000	708.748889
541.582722	662.631667	626.223333
541.935148	716.030556	762.147778
542.287532	689.331111	730.593889
542.639873	740.302778	706.321667
542.992172	713.603333	684.476667
543.344427	779.138333	762.147778
543.696641	720.885000	694.185556
544.048811	682.049444	750.011667
544.400939	703.894444	774.283889
544.753024	677.195000	701.467222
545.105066	767.002222	667.486111
545.457066	764.575000	672.340556
545.809023	699.040000	737.875556
546.160937	728.166667	754.866111
546.512808	711.176111	648.068333
546.864636	742.730000	764.575000
547.216422	660.204444	733.021111
547.568165	759.720556	660.204444
547.919865	667.486111	747.584444
548.271522	718.457778	691.758333
548.623136	776.711111	725.739444
548.974707	781.565556	735.448333
549.326236	679.622222	691.758333
549.677721	750.011667	747.584444
550.029164	689.331111	779.138333
550.380563	774.283889	754.866111
550.731920	733.021111	745.157222
551.083233	703.894444	774.283889
551.434504	735.448333	762.147778
551.785731	711.176111	737.875556
552.136916	844.673333	912.635556
552.488057	805.837778	919.917222
552.839156	837.391667	936.907778
553.190211	917.490000	898.072222
553.541223	859.236667	939.335000
553.892193	961.180000	997.588333
554.243119	990.306667	1012.151667
554.594002	1104.386111	1160.212222
554.944841	1114.095000	1104.386111
555.295638	1194.193333	1259.728333
555.646391	1276.718889	1385.943889
555.997101	1354.390000	1475.751111
556.347768	1517.013889	1623.811667
556.698392	1694.201111	1759.736111
557.048972	1786.435556	1963.622778
557.399510	2034.012222	2228.190000
557.750004	2264.598333	2463.630556
558.100454	2541.301667	2830.141111
558.450862	2859.267778	3216.069444
558.801226	3135.971111	3575.298333
559.151546	3475.782222	3861.710556
559.501824	3808.311667	4538.905556
559.852058	4335.018889	5026.777222
560.202248	4859.298889	5701.545000
560.552395	5378.724444	6264.660556
560.902499	5987.957222	6835.057778
561.252560	6784.086111	7788.956111
561.602576	7432.154444	8927.323333
561.952550	8497.705000	9670.053333
562.302480	9155.482222	10524.435556
562.652366	10371.520556	11762.318889
563.002209	11456.488889	12842.432778
563.352009	13157.971667	14451.681111
563.701765	14713.821111	16175.008889
564.051477	16767.251111	18233.293333
564.401146	19425.059444	20781.876667
564.750771	22580.448333	24041.636111
565.100353	25507.678333	26823.232778
565.449891	28029.562222	29405.797222
565.799385	30939.801667	32068.460000
566.148836	35376.763889	35918.034444
566.498243	37279.706111	37786.995556
566.847607	37461.747778	38486.035556
567.196927	36519.985556	36626.783333
567.546203	33214.108889	34117.035556
567.895435	29951.922222	30277.170000
568.244624	26764.979444	26990.711111
568.593768	22514.913333	23160.554444
568.942870	18842.526111	19655.645556
569.291927	16029.375556	16810.941111
569.640940	13767.204444	14631.295556
569.989910	11636.103333	12347.279444
570.338836	10412.783333	10980.753333
570.687718	9063.247778	9852.095000
571.036557	8075.368333	8723.436667
571.385351	7536.525000	7932.162222
571.734101	7009.817778	7521.961667
572.082808	6495.246667	7094.770556
572.431471	6051.065000	6589.908333
572.780089	5900.577222	6301.068889
573.128664	5507.367222	6004.947778
573.477195	5369.015556	5742.807778
573.825682	5060.758333	5284.062778
574.174125	4919.979444	5254.936111
574.522524	4769.491667	4936.970000
574.870879	4587.450000	4776.773333
575.219189	4315.601111	4640.848889
575.567456	4237.930000	4422.398889
575.915679	4075.306111	4279.192778
576.263858	3958.799444	4106.860000
576.611992	3820.447778	4094.723889
576.960083	3723.358889	3992.780556
577.308129	3645.687778	3830.156667
577.656131	3621.415556	3776.757778
578.004089	3453.937222	3650.542222
578.352003	3417.528889	3589.861667
578.699873	3313.158333	3383.547778
579.047698	3199.078889	3364.130000
579.395479	3186.942778	3308.303889
579.743217	3068.008889	3196.651667
580.090909	2970.920000	3004.901111
580.438558	2839.850000	2864.122222
580.786162	2822.859444	2902.957778
581.133722	2822.859444	2881.112778
581.481238	2733.052222	2764.606111
581.828709	2774.315000	2854.413333
582.176136	2541.301667	2652.953889
582.523519	2514.602222	2648.099444
582.870857	2504.893333	2419.940556
583.218151	2405.377222	2529.165556
583.565400	2342.269444	2405.377222
583.912605	2412.658889	2322.851667
584.259766	2284.016111	2344.696667
584.606882	2206.345000	2250.035000
584.953954	2082.556667	2111.683333
585.300981	2097.120000	2118.965000
585.647964	2177.218333	2160.227778
585.994902	2114.110556	2150.518889
586.341796	2126.246667	2138.382778
586.688646	2084.983889	2080.129444
587.035450	1973.331667	2026.730556
587.382210	1968.477222	1995.176667
587.728926	2077.702222	1997.603889
588.075597	1907.796667	1951.486667
588.422223	1907.796667	1905.369444
588.768805	1851.970556	2036.439444
589.115342	1990.322222	1898.087778
589.461835	1803.426111	1922.360000
589.808282	1871.388333	1868.961111
590.154685	1854.397778	1898.087778
590.501044	1868.961111	1817.989444
590.847357	1796.144444	1910.223889
591.193626	1759.736111	1815.562222
591.539851	1808.280556	1876.242778
591.886030	1796.144444	1895.660556
592.232165	1740.318333	1803.426111
592.578255	1774.299444	1757.308889
592.924300	1713.618889	1725.755000
593.270300	1774.299444	1767.017778
593.616255	1665.074444	1752.454444
593.962166	1655.365556	1737.891111
594.308032	1660.220000	1677.210556
594.653852	1713.618889	1776.726667
594.999628	1711.191667	1750.027222
595.345359	1725.755000	1813.135000
595.691045	1696.628333	1652.938333
596.036686	1686.919444	1618.957222
596.382283	1713.618889	1648.083889
596.727834	1580.121667	1679.637778
597.073340	1614.102778	1735.463889
597.418801	1657.792778	1701.482778
597.764217	1648.083889	1631.093333
598.109589	1631.093333	1570.412778
598.454915	1655.365556	1567.985556
598.800196	1616.530000	1677.210556
599.145432	1565.558333	1652.938333
599.490623	1645.656667	1657.792778
599.835768	1643.229444	1633.520556
600.180869	1543.713333	1650.511111
600.525925	1623.811667	1567.985556
600.870935	1567.985556	1609.248333
601.215900	1589.830556	1534.004444
601.560820	1720.900556	1577.694444
601.905695	1458.760556	1580.121667
602.250525	1478.178333	1609.248333
602.595309	1517.013889	1589.830556
602.940048	1534.004444	1631.093333
603.284742	1524.295556	1597.112222
603.629390	1536.431667	1597.112222
603.973994	1580.121667	1538.858889
604.318552	1521.868333	1618.957222
604.663064	1572.840000	1592.257778
605.007532	1548.567778	1623.811667
605.351954	1580.121667	1492.741667
605.696330	1575.267222	1609.248333
606.040661	1502.450556	1531.577222
606.384947	1492.741667	1531.577222
606.729188	1490.314444	1567.985556
607.073383	1507.305000	1560.703889
607.417532	1519.441111	1565.558333
607.761636	1521.868333	1470.896667
608.105695	1492.741667	1548.567778
608.449708	1597.112222	1497.596111
608.793676	1495.168889	1567.985556
609.137598	1502.450556	1570.412778
609.481474	1424.779444	1461.187778
609.825305	1439.342778	1415.070556
610.169091	1524.295556	1497.596111
610.512831	1458.760556	1436.915556
610.856525	1514.586667	1495.168889
611.200174	1480.605556	1490.314444
611.543777	1541.286111	1553.422222
611.887334	1475.751111	1521.868333
612.230846	1424.779444	1424.779444
612.574312	1473.323889	1473.323889
612.917733	1531.577222	1504.877778
613.261107	1466.042222	1449.051667
613.604436	1541.286111	1485.460000
613.947720	1407.788889	1483.032778
614.290957	1538.858889	1553.422222
614.634149	1451.478889	1439.342778
614.977295	1497.596111	1502.450556
615.320395	1492.741667	1453.906111
615.663450	1424.779444	1468.469444
616.006458	1512.159444	1546.140556
616.349421	1470.896667	1402.934444
616.692338	1446.624444	1453.906111
617.035209	1475.751111	1604.393889
617.378034	1432.061111	1473.323889
617.720813	1470.896667	1490.314444
618.063546	1483.032778	1483.032778
618.406234	1485.460000	1495.168889
618.748875	1405.361667	1495.168889
619.091471	1517.013889	1550.995000
619.434020	1541.286111	1470.896667
619.776524	1393.225556	1492.741667
620.118982	1381.089444	1424.779444
620.461393	1429.633889	1444.197222
620.803759	1395.652778	1395.652778
621.146078	1405.361667	1351.962778
621.488351	1412.643333	1446.624444
621.830579	1468.469444	1470.896667
622.172760	1322.836111	1427.206667
622.514895	1310.700000	1395.652778
622.856984	1334.972222	1402.934444
623.199027	1427.206667	1376.235000
623.541024	1376.235000	1373.807778
623.882974	1419.925000	1320.408889
624.224878	1339.826667	1303.418333
624.566737	1354.390000	1400.507222
624.908549	1269.437222	1325.263333
625.250314	1313.127222	1308.272778
625.592034	1320.408889	1339.826667
625.933707	1269.437222	1298.563889
626.275334	1349.535556	1310.700000
626.616914	1274.291667	1327.690556
626.958449	1342.253889	1262.155556
627.299937	1322.836111	1364.098889
627.641378	1317.981667	1237.883333
627.982774	1308.272778	1354.390000
628.324123	1269.437222	1233.028889
628.665425	1284.000556	1361.671667
629.006681	1225.747222	1237.883333
629.347891	1320.408889	1317.981667
629.689055	1172.348333	1242.737778
630.030171	1225.747222	1279.146111
630.371242	1199.047778	1237.883333
630.712266	1233.028889	1276.718889
631.053243	1235.456111	1296.136667
631.394174	1237.883333	1213.611111
631.735059	1186.911667	1191.766111
632.075897	1182.057222	1201.475000
632.416688	1223.320000	1189.338889
632.757433	1174.775556	1135.940000
633.098131	1191.766111	1162.639444
633.438783	1138.367222	1167.493889
633.779388	1169.921111	1189.338889
634.119946	1157.785000	1140.794444
634.460458	1235.456111	1152.930556
634.800923	1211.183889	1111.667778
635.141342	1106.813333	1060.696111
635.481713	1157.785000	1109.240556
635.822038	1089.822778	1201.475000
636.162317	1118.949444	1216.038333
636.502548	1182.057222	1152.930556
636.842733	1138.367222	1121.376667
637.182871	1123.803889	1084.968333
637.522963	1138.367222	1128.658333
637.863007	1043.705556	1135.940000
638.203005	1121.376667	1080.113889
638.542956	1104.386111	1128.658333
638.882860	987.879444	1060.696111
639.222717	1099.531667	1084.968333
639.562528	1021.860556	1140.794444
639.902291	1077.686667	1133.512778
640.242008	1053.414444	1084.968333
640.581677	1055.841667	1036.423889
640.921300	1053.414444	1101.958889
641.260876	1046.132778	1101.958889
641.600405	1131.085556	997.588333
641.939887	1031.569444	1092.250000
642.279322	1087.395556	1116.522222
642.618710	1082.541111	1058.268889
642.958050	1075.259444	1065.550556
643.297344	1046.132778	1063.123333
643.636591	1024.287778	1021.860556
643.975791	966.034444	1106.813333
644.314944	1036.423889	1070.405000
644.654049	1007.297222	1080.113889
644.993108	1046.132778	1084.968333
645.332119	1089.822778	1063.123333
645.671083	1046.132778	966.034444
646.010000	1116.522222	973.316111
646.348870	1007.297222	1080.113889
646.687693	1026.715000	1000.015556
647.026468	968.461667	1026.715000
647.365197	1026.715000	1038.851111
647.703878	992.733889	995.161111
648.042511	1077.686667	1067.977778
648.381098	1048.560000	1019.433333
648.719637	1012.151667	1084.968333
649.058129	1017.006111	987.879444
649.396574	997.588333	1067.977778
649.734971	956.325556	985.452222
650.073321	1084.968333	1021.860556
650.411624	997.588333	966.034444
650.749879	956.325556	939.335000
651.088087	973.316111	1055.841667
651.426248	1004.870000	1009.724444
651.764361	975.743333	1024.287778
652.102427	1043.705556	992.733889
652.440445	958.752778	1021.860556
652.778416	1004.870000	1063.123333
653.116339	1007.297222	978.170556
653.454215	966.034444	1036.423889
653.792043	1050.987222	949.043889
654.129824	970.888889	1038.851111
654.467557	1002.442778	966.034444
654.805243	953.898333	983.025000
655.142881	1082.541111	970.888889
655.480472	1026.715000	1021.860556
655.818015	1002.442778	939.335000
656.155510	1031.569444	980.597778
656.492958	1000.015556	980.597778
656.830358	1046.132778	968.461667
657.167711	1033.996667	963.607222
657.505015	1077.686667	1084.968333
657.842273	992.733889	1002.442778
658.179482	1021.860556	1000.015556
658.516644	983.025000	934.480556
658.853758	953.898333	956.325556
659.190824	987.879444	1000.015556
659.527842	946.616667	1009.724444
659.864813	1012.151667	958.752778
660.201736	1053.414444	1019.433333
660.538611	992.733889	1036.423889
660.875438	980.597778	1053.414444
661.212218	1041.278333	1082.541111
661.548950	924.771667	1082.541111
661.885633	929.626111	1055.841667
662.222269	1031.569444	1017.006111
662.558857	968.461667	997.588333
662.895397	1043.705556	1002.442778
663.231889	1101.958889	1021.860556
663.568334	1019.433333	1000.015556
663.904730	987.879444	987.879444
664.241078	1017.006111	968.461667
664.577378	1033.996667	963.607222
664.913631	1036.423889	997.588333
665.249835	1002.442778	1053.414444
665.585991	983.025000	992.733889
665.922099	1055.841667	987.879444
666.258159	1038.851111	978.170556
666.594171	1065.550556	1050.987222
666.930135	939.335000	980.597778
667.266051	992.733889	1026.715000
667.601919	997.588333	966.034444
667.937738	1046.132778	973.316111
668.273510	1060.696111	1046.132778
668.609233	1118.949444	1106.813333
668.944908	1019.433333	1012.151667
669.280535	949.043889	1007.297222
669.616114	1060.696111	1031.569444
669.951644	1026.715000	1070.405000
670.287126	1017.006111	1060.696111
670.622560	1043.705556	1060.696111
670.957946	1041.278333	1050.987222
671.293283	1080.113889	1002.442778
671.628572	1036.423889	910.208333
671.963813	1060.696111	1000.015556
672.299006	1036.423889	1065.550556
672.634150	1104.386111	1140.794444
672.969245	985.452222	1031.569444
673.304293	1089.822778	1021.860556
673.639291	990.306667	990.306667
673.974242	1024.287778	978.170556
674.309144	995.161111	1033.996667
674.643998	1065.550556	1033.996667
674.978803	1055.841667	1070.405000
675.313560	1033.996667	1031.569444
675.648268	1070.405000	1065.550556
675.982928	946.616667	1014.578889
676.317539	995.161111	1029.142222
676.652101	985.452222	1084.968333
676.986615	987.879444	1038.851111
677.321081	1007.297222	1000.015556
677.655498	1029.142222	1031.569444
677.989866	995.161111	1050.987222
678.324186	1033.996667	992.733889
678.658457	992.733889	980.597778
678.992680	1067.977778	968.461667
679.326854	1002.442778	1070.405000
679.660979	1031.569444	1123.803889
679.995055	992.733889	995.161111
680.329083	992.733889	1060.696111
680.663062	1087.395556	1114.095000
680.996993	1017.006111	951.471111
681.330874	941.762222	1021.860556
681.664707	1031.569444	1087.395556
681.998491	953.898333	1038.851111
682.332227	1041.278333	980.597778
682.665913	997.588333	1041.278333
682.999551	1029.142222	1080.113889
683.333140	941.762222	1033.996667
683.666680	1007.297222	1021.860556
684.000171	963.607222	1012.151667
684.333613	978.170556	1024.287778
684.667006	995.161111	1019.433333
685.000351	985.452222	888.363333
685.333646	936.907778	997.588333
685.666893	956.325556	980.597778
686.000091	919.917222	997.588333
686.333239	1080.113889	995.161111
686.666339	987.879444	970.888889
686.999390	1072.832222	980.597778
687.332391	970.888889	1002.442778
687.665344	953.898333	1075.259444
687.998247	1004.870000	1014.578889
688.331102	963.607222	1019.433333
688.663907	1026.715000	987.879444
688.996664	936.907778	1041.278333
689.329371	983.025000	1067.977778
689.662029	995.161111	1036.423889
689.994638	990.306667	1063.123333
690.327198	990.306667	1084.968333
690.659708	983.025000	1036.423889
690.992170	961.180000	958.752778
691.324582	1002.442778	946.616667
691.656945	963.607222	980.597778
691.989259	1014.578889	1021.860556
692.321524	1012.151667	922.344444
692.653739	953.898333	1046.132778
692.985905	966.034444	1007.297222
693.318022	1007.297222	1000.015556
693.650089	953.898333	1007.297222
693.982107	980.597778	939.335000
694.314076	956.325556	883.508889
694.645996	881.081667	990.306667
694.977866	992.733889	985.452222
695.309686	927.198889	1014.578889
695.641458	956.325556	941.762222
695.973180	956.325556	1004.870000
696.304852	895.645000	992.733889
696.636475	983.025000	939.335000
696.968049	944.189444	941.762222
697.299573	866.518333	1002.442778
697.631047	951.471111	934.480556
697.962472	980.597778	970.888889
698.293848	995.161111	973.316111
698.625174	1000.015556	1014.578889
698.956451	936.907778	961.180000
699.287678	907.781111	895.645000
699.618855	910.208333	939.335000
699.949983	905.353889	898.072222
700.281061	936.907778	922.344444
700.612089	939.335000	953.898333
700.943068	990.306667	1004.870000
701.273998	990.306667	881.081667
701.604877	941.762222	868.945556
701.935707	949.043889	956.325556
702.266487	961.180000	883.508889
702.597218	917.490000	922.344444
702.927899	900.499444	934.480556
703.258530	888.363333	956.325556
703.589111	966.034444	939.335000
703.919642	900.499444	953.898333
704.250124	929.626111	936.907778
704.580556	878.654444	958.752778
704.910938	927.198889	953.898333
705.241270	888.363333	907.781111
705.571553	881.081667	864.091111
705.901785	893.217778	844.673333
706.231968	919.917222	800.983333
706.562101	881.081667	854.382222
706.892184	902.926667	881.081667
707.222216	946.616667	883.508889
707.552199	917.490000	939.335000
707.882132	854.382222	803.410556
708.212016	898.072222	878.654444
708.541849	934.480556	881.081667
708.871632	878.654444	895.645000
709.201365	907.781111	924.771667
709.531048	895.645000	859.236667
709.860681	924.771667	932.053333
710.190264	847.100556	910.208333
710.519796	907.781111	898.072222
710.849279	953.898333	859.236667
711.178712	919.917222	885.936111
711.508094	817.973889	861.663889
711.837427	919.917222	825.255556
712.166709	956.325556	919.917222
712.495941	817.973889	854.382222
712.825123	837.391667	883.508889
713.154255	864.091111	907.781111
713.483336	832.537222	885.936111
713.812367	866.518333	878.654444
714.141348	873.800000	924.771667
714.470279	825.255556	859.236667
714.799159	890.790556	895.645000
715.127990	868.945556	825.255556
715.456769	820.401111	849.527778
715.785499	878.654444	907.781111
716.114178	849.527778	888.363333
716.442807	915.062778	786.420000
716.771385	895.645000	815.546667
717.099914	757.293333	817.973889
717.428391	881.081667	832.537222
717.756819	788.847222	788.847222
718.085195	847.100556	832.537222
718.413522	900.499444	861.663889
718.741798	844.673333	949.043889
719.070023	803.410556	881.081667
719.398198	767.002222	839.818889
719.726323	779.138333	871.372778
720.054397	815.546667	934.480556
720.382420	861.663889	885.936111
720.710393	844.673333	817.973889
721.038316	820.401111	839.818889
721.366188	839.818889	805.837778
721.694009	769.429444	803.410556
722.021779	808.265000	767.002222
722.349499	866.518333	764.575000
722.677169	827.682778	844.673333
723.004787	759.720556	830.110000
723.332355	803.410556	849.527778
723.659873	832.537222	783.992778
723.987339	868.945556	842.246111
724.314755	847.100556	788.847222
724.642120	830.110000	878.654444
724.969435	839.818889	839.818889
725.296699	856.809444	827.682778
725.623911	895.645000	842.246111
725.951074	859.236667	742.730000
726.278185	769.429444	803.410556
726.605245	800.983333	791.274444
726.932255	800.983333	728.166667
727.259214	834.964444	793.701667
727.586122	781.565556	776.711111
727.912979	793.701667	786.420000
728.239785	851.955000	762.147778
728.566540	762.147778	800.983333
728.893245	832.537222	779.138333
729.219898	822.828333	728.166667
729.546501	800.983333	776.711111
729.873052	834.964444	762.147778
730.199552	752.438889	856.809444
730.526002	776.711111	725.739444
730.852400	728.166667	786.420000
731.178748	783.992778	805.837778
731.505044	791.274444	742.730000
731.831290	800.983333	776.711111
732.157484	791.274444	798.556111
732.483627	822.828333	791.274444
732.809719	808.265000	808.265000
733.135760	798.556111	815.546667
733.461750	832.537222	781.565556
733.787688	813.119444	817.973889
734.113576	837.391667	769.429444
734.439412	800.983333	834.964444
734.765197	747.584444	820.401111
735.090931	808.265000	752.438889
735.416614	856.809444	791.274444
735.742245	907.781111	703.894444
736.067825	864.091111	798.556111
736.393354	750.011667	813.119444
736.718832	864.091111	728.166667
737.044258	774.283889	735.448333
737.369633	771.856667	776.711111
737.694957	684.476667	689.331111
738.020229	774.283889	781.565556
738.345450	767.002222	825.255556
738.670619	805.837778	786.420000
738.995738	808.265000	800.983333
739.320804	798.556111	776.711111
739.645820	764.575000	847.100556
739.970784	750.011667	817.973889
740.295696	750.011667	798.556111
740.620557	839.818889	805.837778
740.945366	742.730000	788.847222
741.270124	779.138333	745.157222
741.594831	771.856667	783.992778
741.919486	730.593889	776.711111
742.244089	769.429444	762.147778
742.568641	771.856667	800.983333
742.893141	750.011667	718.457778
743.217590	771.856667	745.157222
743.541987	808.265000	767.002222
743.866332	737.875556	776.711111
744.190626	810.692222	757.293333
744.514868	735.448333	691.758333
744.839058	783.992778	781.565556
745.163197	771.856667	740.302778
745.487284	910.208333	774.283889
745.811320	735.448333	762.147778
746.135303	735.448333	752.438889
746.459235	745.157222	808.265000
746.783115	767.002222	791.274444
747.106944	750.011667	788.847222
747.430720	779.138333	718.457778
747.754445	762.147778	684.476667
748.078118	774.283889	800.983333
748.401739	730.593889	774.283889
748.725308	810.692222	762.147778
749.048825	728.166667	793.701667
749.372291	781.565556	774.283889
749.695705	810.692222	767.002222
750.019066	764.575000	779.138333
750.342376	757.293333	672.340556
750.665634	740.302778	699.040000
750.988840	774.283889	754.866111
751.311994	728.166667	754.866111
751.635096	706.321667	737.875556
751.958146	708.748889	735.448333
752.281143	718.457778	655.350000
752.604089	750.011667	701.467222
752.926983	779.138333	686.903889
753.249825	745.157222	752.438889
753.572615	740.302778	689.331111
753.895352	769.429444	740.302778
754.218038	800.983333	711.176111
754.540671	735.448333	783.992778
754.863252	779.138333	691.758333
755.185781	803.410556	747.584444
755.508258	725.739444	793.701667
755.830683	737.875556	689.331111
756.153056	754.866111	745.157222
756.475376	737.875556	694.185556
756.797644	750.011667	733.021111
757.119860	640.786667	791.274444
757.442023	752.438889	730.593889
757.764135	667.486111	716.030556
758.086194	716.030556	779.138333
758.408201	706.321667	781.565556
758.730155	689.331111	706.321667
759.052057	723.312222	791.274444
759.373907	745.157222	703.894444
759.695704	723.312222	742.730000
760.017449	771.856667	701.467222
760.339142	805.837778	742.730000
760.660782	691.758333	757.293333
760.982370	783.992778	723.312222
761.303905	825.255556	713.603333
761.625388	701.467222	764.575000
761.946818	779.138333	762.147778
762.268196	737.875556	725.739444
762.589521	759.720556	655.350000
762.910794	665.058889	759.720556
763.232015	711.176111	735.448333
763.553182	745.157222	708.748889
763.874298	686.903889	742.730000
764.195360	703.894444	735.448333
764.516370	771.856667	703.894444
764.837328	694.185556	757.293333
765.158233	725.739444	776.711111
765.479085	776.711111	650.495556
765.799885	786.420000	733.021111
766.120631	682.049444	745.157222
766.441326	701.467222	650.495556
766.761967	686.903889	679.622222
767.082556	708.748889	740.302778
767.403092	723.312222	750.011667
767.723575	701.467222	635.932222
768.044006	674.767778	662.631667
768.364384	752.438889	672.340556
768.684709	701.467222	706.321667
769.004981	730.593889	737.875556
769.325200	728.166667	708.748889
769.645367	694.185556	689.331111
769.965481	730.593889	689.331111
770.285541	759.720556	728.166667
770.605549	667.486111	733.021111
770.925504	740.302778	711.176111
771.245407	783.992778	708.748889
771.565256	706.321667	767.002222
771.885052	718.457778	752.438889
772.204795	733.021111	788.847222
772.524486	757.293333	686.903889
772.844123	696.612778	703.894444
773.163708	781.565556	696.612778
773.483239	716.030556	677.195000
773.802717	745.157222	779.138333
774.122142	793.701667	696.612778
774.441515	791.274444	713.603333
774.760834	708.748889	752.438889
775.080100	623.796111	737.875556
775.399313	742.730000	788.847222
775.718473	689.331111	686.903889
776.037579	686.903889	708.748889
776.356633	723.312222	694.185556
776.675633	708.748889	694.185556
776.994580	669.913333	737.875556
777.313474	791.274444	682.049444
777.632315	733.021111	701.467222
777.951103	689.331111	655.350000
778.269837	740.302778	706.321667
778.588518	740.302778	626.223333
778.907146	783.992778	679.622222
779.225720	703.894444	694.185556
779.544242	728.166667	669.913333
779.862709	713.603333	657.777222
780.181124	684.476667	713.603333
780.499485	713.603333	609.232778
780.817793	701.467222	684.476667
781.136047	730.593889	733.021111
781.454248	733.021111	762.147778
781.772396	718.457778	701.467222
782.090490	703.894444	703.894444
782.408531	691.758333	723.312222
782.726518	740.302778	730.593889
783.044452	694.185556	742.730000
783.362333	733.021111	733.021111
783.680159	686.903889	684.476667
783.997933	723.312222	759.720556
784.315653	626.223333	747.584444
784.633319	677.195000	730.593889
784.950932	706.321667	735.448333
785.268491	788.847222	686.903889
785.585996	638.359444	657.777222
785.903448	657.777222	696.612778
786.220847	735.448333	648.068333
786.538191	694.185556	682.049444
786.855482	708.748889	759.720556
787.172720	703.894444	686.903889
787.489903	740.302778	669.913333
787.807033	640.786667	708.748889
788.124110	689.331111	643.213889
788.441132	730.593889	694.185556
788.758101	662.631667	699.040000
789.075016	694.185556	723.312222
789.391877	757.293333	609.232778
789.708685	706.321667	689.331111
790.025438	711.176111	696.612778
790.342138	669.913333	708.748889
790.658784	718.457778	682.049444
790.975376	750.011667	672.340556
791.291915	655.350000	682.049444
791.608399	669.913333	735.448333
791.924830	716.030556	694.185556
792.241206	682.049444	786.420000
792.557529	762.147778	735.448333
792.873798	701.467222	735.448333
793.190012	652.922778	759.720556
793.506173	665.058889	708.748889
793.822280	742.730000	745.157222
794.138333	742.730000	679.622222
794.454332	745.157222	626.223333
794.770277	628.650556	662.631667
795.086167	604.378333	684.476667
795.402004	725.739444	645.641111
795.717787	783.992778	798.556111
796.033515	701.467222	682.049444
796.349190	728.166667	716.030556
796.664810	684.476667	655.350000
796.980376	716.030556	706.321667
797.295888	720.885000	665.058889
797.611346	720.885000	759.720556
797.926750	691.758333	684.476667
798.242099	725.739444	677.195000
798.557394	754.866111	703.894444
798.872635	740.302778	703.894444
799.187822	750.011667	728.166667
799.502955	696.612778	723.312222
799.818033	604.378333	662.631667
800.133057	686.903889	711.176111
800.448027	665.058889	735.448333
800.762942	728.166667	723.312222
801.077803	667.486111	691.758333
801.392610	648.068333	701.467222
801.707362	703.894444	643.213889
802.022060	655.350000	601.951111
802.336703	686.903889	703.894444
802.651292	725.739444	720.885000
802.965827	708.748889	682.049444
803.280307	737.875556	728.166667
803.594733	713.603333	762.147778
803.909104	716.030556	682.049444
804.223421	694.185556	723.312222
804.537684	716.030556	711.176111
804.851891	604.378333	745.157222
805.166045	696.612778	689.331111
805.480143	708.748889	718.457778
805.794188	699.040000	674.767778
806.108177	711.176111	718.457778
806.422112	723.312222	694.185556
806.735993	725.739444	657.777222
807.049818	706.321667	718.457778
807.363590	674.767778	774.283889
807.677306	730.593889	708.748889
807.990968	665.058889	672.340556
808.304575	737.875556	655.350000
808.618128	703.894444	667.486111
808.931625	679.622222	711.176111
809.245068	696.612778	660.204444
809.558457	699.040000	657.777222
809.871790	767.002222	701.467222
810.185069	713.603333	679.622222
810.498293	730.593889	677.195000
810.811462	667.486111	648.068333
811.124576	740.302778	733.021111
811.437636	633.505000	713.603333
811.750640	759.720556	737.875556
812.063590	754.866111	764.575000
812.376485	650.495556	735.448333
812.689325	669.913333	769.429444
813.002110	665.058889	677.195000
813.314840	655.350000	662.631667
813.627516	924.771667	1007.297222
813.940136	686.903889	728.166667
814.252701	742.730000	689.331111
814.565212	662.631667	677.195000
814.877667	718.457778	672.340556
815.190067	720.885000	750.011667
815.502413	674.767778	657.777222
815.814703	737.875556	800.983333
816.126938	648.068333	723.312222
816.439118	689.331111	733.021111
816.751243	713.603333	713.603333
817.063313	694.185556	696.612778
817.375328	733.021111	679.622222
817.687287	716.030556	742.730000
817.999192	754.866111	691.758333
818.311041	643.213889	699.040000
818.622835	706.321667	660.204444
818.934574	699.040000	677.195000
819.246258	718.457778	672.340556
819.557887	633.505000	716.030556
819.869460	679.622222	703.894444
820.180978	672.340556	733.021111
820.492441	708.748889	711.176111
820.803848	662.631667	737.875556
821.115200	611.660000	689.331111
821.426497	633.505000	701.467222
821.737739	643.213889	672.340556
822.048925	657.777222	701.467222
822.360056	774.283889	735.448333
822.671131	711.176111	686.903889
822.982151	716.030556	725.739444
823.293116	667.486111	708.748889
823.604025	720.885000	677.195000
823.914879	611.660000	628.650556
824.225677	735.448333	623.796111
824.536420	667.486111	735.448333
824.847107	718.457778	728.166667
825.157739	703.894444	737.875556
825.468315	691.758333	733.021111
825.778836	672.340556	708.748889
826.089301	733.021111	706.321667
826.399711	747.584444	699.040000
826.710065	682.049444	686.903889
827.020363	718.457778	684.476667
827.330606	652.922778	684.476667
827.640794	696.612778	735.448333
827.950925	665.058889	665.058889
828.261001	723.312222	703.894444
828.571022	660.204444	667.486111
828.880986	711.176111	626.223333
829.190895	708.748889	708.748889
829.500749	689.331111	648.068333
829.810546	667.486111	601.951111
830.120288	662.631667	660.204444
830.429974	648.068333	691.758333
830.739604	631.077778	667.486111
831.049179	733.021111	711.176111
831.358697	679.622222	677.195000
831.668160	691.758333	667.486111
831.977567	614.087222	684.476667
832.286918	713.603333	684.476667
832.596213	657.777222	638.359444
832.905453	733.021111	699.040000
833.214636	696.612778	725.739444
833.523764	606.805556	665.058889
833.832836	669.913333	677.195000
834.141851	650.495556	618.941667
834.450811	667.486111	696.612778
834.759715	684.476667	742.730000
835.068563	667.486111	650.495556
835.377355	728.166667	735.448333
835.686091	730.593889	723.312222
835.994770	730.593889	754.866111
836.303394	652.922778	696.612778
836.611962	701.467222	650.495556
836.920473	713.603333	645.641111
837.228929	609.232778	713.603333
837.537328	694.185556	650.495556
837.845672	754.866111	723.312222
838.153959	762.147778	689.331111
838.462190	669.913333	682.049444
838.770365	745.157222	694.185556
839.078483	669.913333	699.040000
839.386546	769.429444	684.476667
839.694552	686.903889	696.612778
840.002502	682.049444	718.457778
840.310396	689.331111	723.312222
840.618233	674.767778	703.894444
840.926015	718.457778	720.885000
841.233739	723.312222	711.176111
841.541408	718.457778	711.176111
841.849020	669.913333	655.350000
842.156576	672.340556	682.049444
842.464076	638.359444	767.002222
842.771519	643.213889	648.068333
843.078906	713.603333	716.030556
843.386237	679.622222	616.514444
843.693511	686.903889	638.359444
844.000729	706.321667	694.185556
844.307890	703.894444	628.650556
844.614995	689.331111	660.204444
844.922043	699.040000	679.622222
845.229035	793.701667	730.593889
845.535970	635.932222	684.476667
845.842849	701.467222	665.058889
846.149671	674.767778	665.058889
846.456437	682.049444	701.467222
846.763146	750.011667	667.486111
847.069799	718.457778	633.505000
847.376395	669.913333	708.748889
847.682934	677.195000	754.866111
847.989417	669.913333	657.777222
848.295843	691.758333	716.030556
848.602213	655.350000	684.476667
848.908526	689.331111	691.758333
849.214782	725.739444	652.922778
849.520981	725.739444	745.157222
849.827124	669.913333	747.584444
850.133210	665.058889	696.612778
850.439239	706.321667	723.312222
850.745212	742.730000	708.748889
851.051128	643.213889	708.748889
851.356987	682.049444	716.030556
851.662789	679.622222	725.739444
851.968534	674.767778	662.631667
852.274223	669.913333	730.593889
852.579854	660.204444	730.593889
852.885429	701.467222	553.406667
853.190947	682.049444	655.350000
853.496408	665.058889	762.147778
853.801812	657.777222	716.030556
854.107160	684.476667	665.058889
854.412450	711.176111	708.748889
854.717683	764.575000	745.157222
855.022859	752.438889	643.213889
855.327979	672.340556	674.767778
855.633041	703.894444	650.495556
855.938046	691.758333	747.584444
856.242995	728.166667	708.748889
856.547886	696.612778	706.321667
856.852720	711.176111	672.340556
857.157497	701.467222	640.786667
857.462217	733.021111	691.758333
857.766880	682.049444	718.457778
858.071486	691.758333	771.856667
858.376035	723.312222	679.622222
858.680526	696.612778	771.856667
858.984961	713.603333	728.166667
859.289338	682.049444	706.321667
859.593658	696.612778	691.758333
859.897921	779.138333	682.049444
860.202126	701.467222	674.767778
860.506275	652.922778	638.359444
860.810366	626.223333	679.622222
861.114399	723.312222	682.049444
861.418376	665.058889	699.040000
861.722295	694.185556	686.903889
862.026157	742.730000	701.467222
862.329961	665.058889	720.885000
862.633709	708.748889	665.058889
862.937398	706.321667	735.448333
863.241031	701.467222	706.321667
863.544606	652.922778	713.603333
863.848124	643.213889	716.030556
864.151584	652.922778	733.021111
864.454987	691.758333	711.176111
864.758332	699.040000	703.894444
865.061620	623.796111	696.612778
865.364850	742.730000	728.166667
865.668023	720.885000	684.476667
865.971138	689.331111	643.213889
866.274196	694.185556	640.786667
866.577196	628.650556	643.213889
866.880139	781.565556	633.505000
867.183024	667.486111	745.157222
867.485852	711.176111	667.486111
867.788622	708.748889	737.875556
868.091334	696.612778	686.903889
868.393989	725.739444	730.593889
868.696586	745.157222	609.232778
868.999125	718.457778	720.885000
869.301607	623.796111	733.021111
869.604031	737.875556	626.223333
869.906397	669.913333	686.903889
870.208706	669.913333	616.514444
870.510957	650.495556	679.622222
870.813150	674.767778	655.350000
871.115285	716.030556	696.612778
871.417363	716.030556	701.467222
871.719382	665.058889	752.438889
872.021344	706.321667	708.748889
872.323248	645.641111	618.941667
872.625094	640.786667	728.166667
872.926883	667.486111	682.049444
873.228613	706.321667	716.030556
873.530286	735.448333	762.147778
873.831900	696.612778	767.002222
874.133457	764.575000	662.631667
874.434956	737.875556	725.739444
874.736397	711.176111	728.166667
875.037780	742.730000	657.777222
875.339105	633.505000	728.166667
875.640371	711.176111	679.622222
875.941580	723.312222	689.331111
876.242731	626.223333	674.767778
876.543824	621.368889	626.223333
876.844859	638.359444	718.457778
877.145835	682.049444	648.068333
877.446754	730.593889	643.213889
877.747614	708.748889	735.448333
878.048417	718.457778	667.486111
878.349161	725.739444	648.068333
878.649847	725.739444	720.885000
878.950475	691.758333	677.195000
879.251045	696.612778	699.040000
879.551556	706.321667	645.641111
879.852010	728.166667	742.730000
880.152405	747.584444	662.631667
880.452741	711.176111	611.660000
880.753020	723.312222	723.312222
881.053240	652.922778	691.758333
881.353402	689.331111	708.748889
881.653506	674.767778	672.340556
881.953552	718.457778	660.204444
882.253539	623.796111	665.058889
882.553467	694.185556	747.584444
882.853338	745.157222	708.748889
883.153150	604.378333	669.913333
883.452903	740.302778	652.922778
883.752598	672.340556	643.213889
884.052235	703.894444	694.185556
884.351814	699.040000	643.213889
884.651333	716.030556	699.040000
884.950795	657.777222	686.903889
885.250198	711.176111	740.302778
885.549542	665.058889	669.913333
885.848828	723.312222	757.293333
886.148055	686.903889	691.758333
886.447224	713.603333	718.457778
886.746335	684.476667	708.748889
887.045386	674.767778	696.612778
887.344379	716.030556	686.903889
887.643314	631.077778	762.147778
887.942190	633.505000	672.340556
888.241007	706.321667	669.913333
888.539766	783.992778	662.631667
888.838465	703.894444	648.068333
889.137107	655.350000	725.739444
889.435689	672.340556	643.213889
889.734213	703.894444	633.505000
890.032678	682.049444	720.885000
890.331085	643.213889	667.486111
