power (mW)	FWHM	peak value	peak location
0.318778	94.870836	126.215556	0.000000
0.303792	51.759582	118.933889	0.000000
0.308371	40.838699	128.642778	0.000000
0.377820	108.037673	140.778889	0.000000
0.392389	131.723420	150.487778	0.000000
0.393083	137.947604	160.196667	0.000000
0.506517	152.153450	140.778889	0.000000
0.516507	12.348174	179.614444	0.000000
0.509778	14.287919	152.915000	0.000000
0.554527	101.373615	128.642778	0.000000
0.723256	122.376240	126.215556	0.000000
0.991405	76.873217	148.060556	0.000000
1.040179	42.468395	157.769444	0.000000
1.066195	41.300476	131.070000	0.000000
1.188857	41.300476	131.070000	0.000000
1.443754	23.814237	196.605000	0.000000
1.545812	42.058996	157.769444	0.000000
1.911922	74.653447	140.778889	0.000000
1.997328	118.280411	191.750556	0.000000
2.151488	45.839409	152.915000	0.000000
2.254931	41.940858	148.060556	0.000000
2.642550	23.173736	162.623889	0.000000
2.950661	23.173736	162.623889	0.000000
3.479603	12.937715	211.168333	0.000000
3.546902	35.434622	160.196667	0.000000
3.542739	48.210351	179.614444	0.000000
3.765654	84.473967	167.478333	0.000000
4.483654	34.946629	167.478333	0.000000
4.683466	128.800752	186.896111	0.000000
4.865306	65.304917	189.323333	0.000000
4.913596	21.731816	206.313889	0.000000
5.184520	17.464817	220.877222	0.000000
5.558121	69.163602	216.022778	0.000000
6.096571	14.320275	223.304444	0.000000
6.340090	6.293643	281.557778	0.000000
6.676855	34.999596	247.576667	0.000000
7.865869	12.579413	296.121111	0.000000
7.898265	12.579413	296.121111	0.000000
8.968227	20.243933	264.567222	0.000000
9.028516	21.642762	315.538889	0.000000
9.104488	18.906677	296.121111	0.000000
9.793070	18.509221	276.703333	0.000000
9.923639	10.123917	373.792222	0.000000
10.145579	12.585695	339.811111	0.000000
10.345396	7.340293	344.665556	0.000000
10.881973	13.278266	354.374444	0.000000
11.640766	8.034347	373.792222	565.799385
11.927022	30.268090	317.966111	0.000000
12.332819	9.433980	322.820556	0.000000
12.463388	12.588833	373.792222	0.000000
13.184096	16.057583	444.181667	565.449891
13.473611	16.405630	524.280000	564.401146
14.615031	16.405630	524.280000	564.401146
14.719311	5.596441	2194.208889	563.352009
15.182340	5.946588	1650.511111	563.352009
15.892296	6.644531	1004.870000	563.701765
15.868496	5.945848	2002.458333	563.352009
16.355749	6.994678	1502.450556	563.352009
17.197663	6.994678	1502.450556	563.352009
18.606458	4.197331	9606.945556	563.352009
18.554435	4.896886	3786.466667	563.352009
19.133675	8.391520	968.461667	564.051477
19.640277	5.595744	3240.341667	563.701765
20.349191	5.595744	3240.341667	563.701765
20.109549	4.896277	5245.227222	563.701765
20.380409	4.546826	3349.566667	563.701765
21.749113	4.546826	3349.566667	563.701765
22.216658	4.546826	5786.497778	563.701765
22.077345	5.945848	3070.436111	563.352009
22.209235	5.945848	3070.436111	563.352009
22.633268	4.197331	14490.516667	563.352009
23.318042	4.546826	12580.292778	563.352009
23.625313	3.847314	5470.958889	563.701765
23.804040	4.196809	9284.125000	563.701765
24.064755	4.896886	16507.538333	563.352009
24.092515	4.896886	16507.538333	563.352009
24.971262	5.246337	7524.388889	563.352009
25.111833	4.546826	6201.552778	563.352009
26.147374	4.546826	11808.436111	563.701765
26.228275	4.546826	8759.845000	563.701765
26.610896	4.896886	11022.016111	563.352009
27.293648	4.896886	9480.730000	563.352009
27.364765	4.896886	9480.730000	563.352009
27.573873	4.896886	2742.761111	563.352009
27.557640	4.546826	24167.851667	563.701765
27.693764	5.246337	3269.468333	563.352009
28.112247	5.246337	14357.019444	563.352009
28.566271	5.246337	14357.019444	563.352009
28.760242	4.896277	9412.767778	563.701765
29.099589	4.546826	7386.037222	563.701765
28.873129	4.197331	19968.757222	563.352009
28.624123	4.197331	19968.757222	563.352009
29.218705	4.896886	20187.207222	563.352009
30.297960	4.546826	11407.944444	563.352009
30.233857	5.246337	8968.586111	563.352009
30.668380	5.246337	8968.586111	563.352009
30.328075	4.896886	16138.600556	563.352009
30.151981	4.546826	25667.875000	563.701765
30.742194	5.246337	18393.490000	563.352009
30.808805	4.546826	21551.306111	563.701765
31.431879	4.546826	21551.306111	563.701765
31.515061	4.896277	21942.088889	563.701765
31.664512	4.196809	22789.189444	563.701765
31.737219	4.196809	41663.269444	563.701765
32.371966	4.546260	38687.495000	563.701765
31.707880	4.896277	41643.851667	563.701765
31.446246	4.196809	36430.178333	563.701765
31.061407	4.546260	41998.226111	563.701765
31.247750	4.896277	24655.723333	563.701765
31.268294	4.546260	26214.000000	563.701765
31.847124	4.196809	47876.958333	563.701765
30.841189	4.546260	48364.830000	563.701765
31.383196	3.846835	27087.800000	563.701765
31.378254	4.896277	39294.300556	563.701765
30.942695	4.896277	40444.803889	563.701765
31.076039	4.896277	40444.803889	563.701765
30.749406	4.896277	42405.999444	563.701765
30.106414	4.896277	46296.836667	563.701765
30.403131	4.896277	43481.258889	563.701765
30.218672	4.896277	36888.923333	563.701765
30.264385	4.896277	30655.816667	563.701765
