power (mW)	FWHM	peak value	peak location
-0.019300	156.984799	201.459444	0.000000
-0.019728	156.984799	201.459444	0.000000
-0.020267	81.600118	199.032222	0.000000
-0.023603	108.617646	167.478333	0.000000
-0.025331	75.577004	174.760000	0.000000
-0.017111	115.026066	199.032222	0.000000
-0.005780	72.643527	169.905556	0.000000
0.001151	25.481934	186.896111	0.000000
0.000641	40.756510	182.041667	0.000000
0.015137	51.244952	184.468889	0.000000
0.022257	36.189222	235.440556	0.000000
0.053545	18.513854	230.586111	0.000000
0.054692	5.225981	257.285556	0.000000
0.077400	45.435833	296.121111	0.000000
0.105305	3.845397	342.238333	0.000000
0.108647	15.691739	313.111667	0.000000
0.145071	15.652089	478.162778	0.000000
0.164215	26.446211	424.763889	574.522524
0.185467	33.405532	480.590000	570.338836
0.221861	31.989281	478.162778	572.780089
0.250789	19.795635	475.735556	576.611992
0.248657	26.768649	560.688333	574.174125
0.309259	21.585559	633.505000	572.082808
0.325081	27.453426	679.622222	576.263858
0.336820	35.457222	708.748889	572.431471
0.389239	32.668030	791.274444	574.174125
0.431651	34.766435	849.527778	573.825682
0.466332	27.845148	927.198889	574.522524
0.517260	30.264246	883.508889	572.431471
0.515833	33.042879	941.762222	572.780089
0.564563	34.757580	1070.405000	574.174125
0.648453	30.983531	1036.423889	575.219189
0.645775	30.963889	1162.639444	574.870879
0.716972	31.655665	1274.291667	574.870879
0.775562	29.579798	1315.554444	572.431471
0.818060	32.713756	1405.361667	573.825682
0.855222	34.066792	1402.934444	574.522524
0.929774	31.659686	1553.422222	574.174125
0.948253	32.713756	1543.713333	574.174125
1.029856	31.309799	1623.811667	573.128664
1.042624	30.959956	1626.238889	574.522524
1.135825	33.038679	1735.463889	574.174125
1.129474	30.963889	1750.027222	572.780089
1.269341	30.963889	1970.904444	573.825682
1.305963	35.807109	2051.002778	573.477195
1.361306	35.134187	2043.721111	573.477195
1.428012	29.579798	2240.326111	573.825682
1.485734	29.591050	2245.180556	574.174125
1.524420	35.470764	2250.035000	573.128664
1.602078	32.359589	2415.086111	572.780089
1.664562	30.629588	2468.485000	572.431471
1.745902	30.633470	2555.865000	572.780089
1.756454	30.625705	2713.634444	573.128664
1.869733	31.317750	2801.014444	572.431471
1.899662	33.047078	2706.352778	572.431471
1.924886	29.937274	2866.549444	572.780089
1.979934	32.355482	2917.521111	573.477195
2.074211	32.367801	2934.511667	572.082808
2.132378	30.983531	3060.727222	572.431471
2.240339	29.252186	3194.224444	572.082808
2.248793	32.367801	3284.031667	572.082808
2.337611	30.291127	3279.177222	572.431471
2.578220	31.679769	3458.791667	571.385351
2.630086	31.679769	3466.073333	571.036557
2.723554	26.483055	2737.906667	566.498243
2.704307	27.869828	3662.678333	566.148836
2.744339	27.176530	2432.076667	566.148836
2.772677	21.273637	1376.235000	565.799385
2.837861	24.748586	1320.408889	565.449891
2.960428	21.618297	4017.052778	565.100353
2.981949	22.315652	5487.949444	565.100353
2.984092	22.315652	5745.235000	565.100353
3.093095	17.099443	6730.687222	564.750771
3.078998	15.707523	6864.184444	564.750771
3.106572	17.447313	6774.377222	564.750771
3.137361	16.055569	7043.798889	564.750771
3.308512	10.481542	8301.100000	564.750771
3.314993	7.341209	9322.960556	564.401146
3.418035	6.642875	11106.968889	564.401146
3.588563	6.293643	12490.485556	564.401146
3.550854	6.293643	12068.148889	564.401146
3.566906	6.293643	12590.001667	564.401146
3.659100	5.944367	12813.306111	564.051477
3.708220	5.944367	14092.452222	564.051477
3.695953	5.595047	14415.272778	564.051477
3.751618	5.595047	16073.065556	564.051477
3.781605	5.595047	15980.831111	564.051477
3.766150	5.595047	16689.580000	564.051477
3.778883	5.595047	17927.463333	564.051477
3.765618	5.595047	16725.988333	564.051477
3.907706	5.245684	18718.737778	563.701765
3.886697	5.245684	19357.097222	563.701765
3.921739	4.896277	20529.445556	563.701765
4.042533	5.595744	20716.341667	563.701765
4.073960	5.595744	21010.035556	563.701765
3.995426	5.246337	21153.241667	563.701765
4.093614	4.896277	22364.425556	563.701765
4.143317	5.246337	22723.654444	563.352009
4.081510	5.246337	22393.552222	563.352009
4.140807	5.246337	22524.622222	563.352009
4.197122	4.896886	26951.875556	563.352009
4.178289	4.896886	26944.593889	563.352009
4.191001	4.896886	26007.686111	563.352009
4.153742	4.896886	24041.636111	563.352009
4.121177	5.246990	25014.952222	563.352009
