power (mW)	FWHM	peak value	peak location
-0.056019	4.937840	191.750556	0.000000
-0.052010	49.523879	172.332778	0.000000
-0.046343	23.544569	162.623889	0.000000
-0.043413	51.562272	162.623889	0.000000
-0.043252	113.074416	182.041667	0.000000
-0.039975	119.464487	216.022778	0.000000
-0.035865	128.739138	201.459444	0.000000
-0.032909	105.880177	194.177778	0.000000
-0.018949	45.422843	179.614444	0.000000
-0.011699	49.548786	186.896111	0.000000
0.000374	74.186793	223.304444	0.000000
-0.000413	28.307153	206.313889	0.000000
0.006271	79.567222	189.323333	0.000000
0.029083	65.245338	206.313889	0.000000
0.061046	76.360004	245.149444	0.000000
0.058519	15.338205	211.168333	0.000000
0.070516	20.164775	242.722222	0.000000
0.124138	13.563432	298.548333	0.000000
0.136817	54.319596	291.266667	0.000000
0.166751	28.043825	398.064444	0.000000
0.196378	18.826500	405.346111	0.000000
0.227035	20.408593	417.482222	0.000000
0.250984	43.060488	427.191111	570.338836
0.276129	32.717904	453.890556	567.895435
0.331162	32.697148	504.862222	569.291927
0.366600	37.240184	504.862222	567.546203
0.371287	43.465896	550.979444	565.449891
0.418423	38.977830	655.350000	578.004089
0.457131	36.558028	616.514444	566.148836
0.512926	17.116595	919.917222	562.652366
0.550285	12.587264	1320.408889	561.952550
0.547926	10.839715	1436.915556	561.952550
0.621942	5.949546	2449.067222	561.602576
0.698591	6.299127	2293.725000	561.602576
0.714269	5.599920	3128.689444	561.602576
0.837220	5.599920	3793.748333	561.602576
0.863491	5.249600	4021.907222	561.602576
0.862402	5.599920	3771.903333	561.602576
0.893478	4.899931	5301.053333	561.602576
0.976574	4.899931	6429.711667	561.602576
1.059423	4.899931	7665.167778	561.602576
1.113179	4.899931	8956.450000	561.602576
1.181011	4.899931	9844.813333	561.602576
1.266997	4.550218	11240.466111	561.602576
1.304111	4.550218	11939.506111	561.602576
1.389094	4.550218	13623.998333	561.602576
1.423659	4.550218	14461.390000	561.602576
1.448113	4.550218	15107.031111	561.602576
1.561668	4.550218	15437.133333	561.602576
1.627282	4.550218	17077.935556	561.252560
1.607893	4.900539	16752.687778	561.252560
1.705370	4.550218	19597.392222	561.602576
1.770183	4.550218	20269.732778	561.602576
1.907537	4.550218	22095.003889	561.602576
1.853869	4.550218	23582.891111	561.602576
1.981996	4.550218	25922.733333	561.602576
1.980802	4.550218	26565.947222	561.602576
2.089045	4.550218	29209.192222	561.602576
2.146142	4.550218	28755.301667	561.252560
2.255654	4.550218	31721.367222	561.252560
2.255625	4.550218	28056.261667	561.252560
2.270017	4.550218	29711.627222	561.602576
2.418902	4.550218	30636.398889	561.252560
2.445241	4.550218	31282.040000	561.252560
2.534162	4.550218	33796.642222	561.252560
2.607246	4.550218	33029.640000	561.252560
2.712201	4.550218	34604.907222	561.602576
2.730234	4.900539	34901.028333	561.252560
2.771381	4.550218	37039.411111	561.252560
2.892614	4.550218	38376.810556	561.252560
2.909770	4.550218	38612.251111	561.602576
2.963010	4.550218	36689.891111	561.602576
3.101675	4.550218	40068.584444	561.602576
3.115598	4.899931	39986.058889	561.602576
3.142731	4.550218	39566.149444	561.252560
3.221143	4.900539	42219.103333	561.252560
