power (mW)	FWHM	peak value	peak location
-0.438282	19.631185	148.060556	0.000000
-0.460068	103.098050	167.478333	0.000000
-0.415179	120.817737	155.342222	0.000000
-0.381114	121.009013	184.468889	0.000000
-0.386734	68.991423	167.478333	0.000000
-0.362382	133.910995	150.487778	0.000000
-0.353571	124.629337	155.342222	0.000000
-0.315413	145.378567	148.060556	0.000000
-0.118516	123.225911	143.206111	0.000000
-0.058087	54.167509	155.342222	0.000000
0.129028	105.715376	184.468889	0.000000
0.164896	70.260009	184.468889	0.000000
0.203818	136.877411	138.351667	0.000000
0.255990	100.681737	160.196667	0.000000
0.379138	100.681737	160.196667	0.000000
0.638059	18.958053	121.361111	0.000000
0.705842	22.714127	160.196667	0.000000
1.033240	116.013105	152.915000	0.000000
1.085829	59.277580	167.478333	0.000000
1.180046	30.722394	140.778889	0.000000
1.618173	41.562789	172.332778	0.000000
1.701289	58.031286	150.487778	0.000000
1.908662	9.088545	177.187222	0.000000
2.388972	25.541468	208.741111	0.000000
2.586215	22.335300	179.614444	0.000000
2.710195	17.135833	186.896111	0.000000
3.126884	131.228917	174.760000	0.000000
3.446651	20.612314	152.915000	0.000000
3.992730	36.903849	213.595556	0.000000
4.169021	36.903849	213.595556	0.000000
5.002257	4.892004	216.022778	0.000000
5.001080	13.635347	230.586111	0.000000
5.330211	36.207577	194.177778	0.000000
5.839523	13.957873	211.168333	0.000000
6.053695	31.471695	211.168333	0.000000
6.323300	13.957873	247.576667	0.000000
7.183459	20.254086	203.886667	0.000000
7.295366	21.962824	235.440556	0.000000
7.330678	13.606364	250.003889	0.000000
7.683197	13.606364	250.003889	0.000000
8.078720	34.191999	220.877222	0.000000
9.353624	25.554160	218.450000	0.000000
9.441322	17.093000	308.257222	0.000000
9.568701	17.817453	269.421667	0.000000
10.162932	9.076049	240.295000	0.000000
10.518769	12.571548	242.722222	0.000000
10.760007	24.508568	247.576667	0.000000
11.319128	14.996221	264.567222	0.000000
11.432351	22.685708	303.402778	0.000000
11.811089	3.147019	381.073889	0.000000
12.330806	26.132951	320.393333	0.000000
12.694212	29.255887	400.491667	0.000000
13.989649	29.255887	400.491667	0.000000
13.884959	20.915671	305.830000	0.000000
14.571883	10.127723	390.782778	565.799385
14.695654	9.790103	550.979444	564.750771
15.004389	17.116595	422.336667	565.799385
15.469363	8.390474	720.885000	564.401146
16.617441	10.485470	657.777222	564.750771
17.388106	13.274947	752.438889	564.401146
17.388106	5.594350	2230.617222	564.401146
17.859946	5.594350	1305.845556	564.750771
19.007680	6.293643	1781.581111	564.401146
20.099484	6.293643	1402.934444	564.401146
20.268699	6.642875	1541.286111	564.401146
20.437027	5.944367	1953.913889	564.401146
20.884092	5.944367	3801.030000	564.401146
20.620877	5.244377	2652.953889	564.750771
22.115567	5.944367	2754.897222	564.401146
22.238508	5.943626	2325.278889	564.401146
22.108074	5.944367	2393.241111	564.401146
22.607049	4.894447	4228.221111	564.750771
22.787925	6.992064	1424.779444	564.401146
24.103134	5.244377	3157.816111	564.401146
24.160080	5.244377	2507.320556	564.401146
24.697013	5.943626	2939.366111	564.401146
24.714014	5.244377	4699.102222	564.401146
25.040855	5.244377	4699.102222	564.401146
25.055295	5.244377	3801.030000	564.401146
25.402452	4.545127	5696.690556	564.401146
25.860290	5.244377	3483.063889	564.401146
26.064470	5.594350	4973.378333	564.401146
27.671211	5.594350	4973.378333	564.401146
27.977106	5.244377	6109.318333	564.401146
28.560510	5.244377	6128.736111	564.401146
28.046752	5.244377	5526.785000	564.750771
28.562171	5.244377	7242.831111	564.401146
28.345018	5.244377	8415.179444	564.401146
28.422454	5.244377	8162.748333	564.750771
29.372868	4.545127	13871.575000	564.750771
29.501696	4.895057	10373.947778	564.401146
29.054422	4.894447	7728.275556	564.750771
29.699286	4.895057	16604.627222	564.401146
29.719617	4.895057	9201.599444	564.401146
29.817933	5.244377	11116.677778	564.401146
29.703384	5.943626	6388.448889	564.401146
30.080125	5.244377	7672.449444	564.750771
30.103489	5.244377	7672.449444	564.750771
30.277623	5.244377	6284.078333	564.750771
30.991960	4.894447	10762.303333	564.750771
31.212722	4.894447	10762.303333	564.750771
31.231735	5.943626	8759.845000	564.401146
31.795427	5.244377	9575.391667	564.401146
32.192066	5.244377	12592.428889	564.750771
32.279276	4.894447	10485.600000	564.750771
31.793968	4.894447	12194.364444	564.750771
31.422862	5.244377	15437.133333	564.750771
31.726407	5.244377	11990.477778	564.750771
31.331222	5.244377	11990.477778	564.750771
31.947853	5.244377	6153.008333	564.750771
30.722634	5.593653	6667.579444	564.750771
31.126904	4.195240	9492.866111	564.750771
30.618692	5.593653	8279.255000	564.750771
31.759490	5.593653	8279.255000	564.750771
31.088257	4.894447	7708.857778	564.750771
30.695285	4.894447	7803.519444	564.750771
30.713615	5.243723	16153.163889	564.750771
31.400385	5.244377	16536.665000	564.750771
31.137993	4.894447	15274.509444	564.750771
31.211204	4.894447	15274.509444	564.750771
