power (mW)	FWHM	peak value	peak location
-0.016157	24.597566	157.769444	0.000000
-0.014449	69.714308	174.760000	0.000000
-0.013293	30.188506	189.323333	0.000000
-0.015439	108.036283	184.468889	0.000000
-0.015609	95.341181	169.905556	0.000000
-0.018732	103.409293	174.760000	0.000000
-0.021313	149.002782	155.342222	0.000000
-0.022628	19.995287	165.051111	0.000000
-0.024200	147.591121	160.196667	0.000000
-0.024868	92.141908	177.187222	0.000000
-0.023888	28.421178	167.478333	0.000000
-0.012541	12.236857	199.032222	0.000000
-0.010393	105.715376	242.722222	0.000000
-0.005601	2.091317	201.459444	0.000000
0.008143	21.316354	225.731667	0.000000
0.015945	10.805800	274.276111	0.000000
0.029758	43.799663	259.712778	0.000000
0.040573	4.185268	315.538889	0.000000
0.064873	22.651474	390.782778	565.799385
0.081874	26.175750	444.181667	568.593768
0.107002	35.888929	463.599444	565.799385
0.125819	28.942287	536.416111	567.895435
0.153526	29.281756	609.232778	566.498243
0.201163	29.281756	609.232778	566.498243
0.202988	38.656751	767.002222	566.847607
0.227585	29.303880	808.265000	567.546203
0.262062	30.691544	885.936111	566.847607
0.313555	25.484136	980.597778	567.895435
0.332094	29.303880	1000.015556	565.799385
0.360944	27.214213	1089.822778	566.847607
0.408239	23.386652	1213.611111	565.799385
0.420866	21.297695	1293.709444	565.799385
0.466563	25.124009	1480.605556	566.498243
0.514854	19.911110	1555.849444	607.073383
0.542263	24.782846	1609.248333	565.799385
0.583795	24.435330	1735.463889	565.449891
0.659209	24.779737	1922.360000	563.701765
0.695630	20.259156	2128.673889	563.701765
0.733043	18.516169	2626.254444	562.652366
0.781544	7.696060	5053.476667	563.002209
0.875504	7.346697	6463.692778	562.652366
0.927916	6.647012	7740.411667	563.002209
0.942204	6.296779	7524.388889	563.002209
1.034231	5.597137	14653.140556	563.002209
1.024281	5.246990	15075.477222	563.002209
1.122038	4.547392	28947.052222	563.352009
1.167235	4.547392	28947.052222	563.352009
1.286429	4.547392	41595.307222	563.002209
1.333159	4.197331	53262.964444	563.352009
1.375665	4.197331	56195.048889	563.352009
1.435335	4.547392	54600.363889	563.352009
1.466261	4.547392	58639.261667	563.352009
1.502381	4.896886	64952.466667	563.352009
1.612113	5.946588	64979.166111	563.352009
1.681432	5.946588	64979.166111	563.352009
1.735355	5.946588	64979.166111	563.352009
1.835754	5.946588	64979.166111	563.352009
1.865224	6.646186	64984.020556	563.352009
1.970716	6.996420	64984.020556	563.002209
2.063639	6.996420	64984.020556	563.002209
2.099386	6.996420	64984.020556	563.002209
