power (mW)	FWHM	peak value	peak location
-0.035892	29.151528	201.459444	0.000000
-0.038650	126.957944	235.440556	0.000000
-0.043162	15.906663	152.915000	0.000000
-0.043344	80.124684	235.440556	0.000000
-0.041378	141.265954	220.877222	0.000000
-0.038148	23.608237	186.896111	0.000000
-0.038828	153.085346	184.468889	0.000000
-0.033481	70.431534	194.177778	0.000000
-0.029205	51.199689	179.614444	0.000000
-0.021737	40.426044	208.741111	0.000000
0.002529	20.981300	247.576667	0.000000
0.006168	31.835236	228.158889	0.000000
0.023584	42.468580	264.567222	0.000000
0.041105	17.385667	300.975556	0.000000
0.073800	3.485967	305.830000	0.000000
0.088347	20.228678	310.684444	0.000000
0.132104	15.711462	296.121111	0.000000
0.134862	33.777029	286.412222	0.000000
0.143057	23.972256	388.355556	0.000000
0.213064	14.587229	422.336667	576.960083
0.213221	33.371575	422.336667	575.219189
0.215262	27.118012	407.773333	574.522524
0.268661	33.105713	451.463333	577.308129
0.296943	42.333470	483.017222	579.047698
0.331324	33.652439	609.232778	569.640940
0.389075	25.303479	580.106111	576.611992
0.403106	25.750272	631.077778	576.263858
0.444461	35.461738	626.223333	576.960083
0.477447	36.511658	679.622222	576.263858
0.503860	37.518926	742.730000	576.263858
0.556703	50.628270	783.992778	578.699873
0.602991	52.351877	876.227222	574.870879
0.664553	41.724699	832.537222	576.960083
0.665063	46.883124	842.246111	576.263858
0.725281	35.152029	944.189444	577.656131
0.785174	31.679769	1012.151667	575.915679
0.847902	38.597948	1077.686667	572.431471
0.894998	39.643608	1082.541111	576.263858
0.977802	40.668687	1191.766111	565.100353
1.010082	39.983711	1211.183889	565.100353
1.060536	37.226010	1254.873889	564.401146
1.102265	39.988799	1267.010000	576.263858
1.105114	32.730341	1495.168889	564.051477
1.243716	28.909439	2104.401667	563.701765
1.274931	19.538514	2609.263889	563.701765
1.330517	16.059597	2643.245000	563.701765
1.420545	26.483055	2376.250556	563.701765
1.440790	6.644531	3036.455000	563.701765
1.446895	5.595744	3342.285000	563.701765
1.562806	6.295211	3740.349444	563.352009
1.542753	5.595744	3956.372222	563.352009
1.661194	5.246337	5534.066667	563.352009
1.797662	4.896886	6628.743889	563.352009
1.768343	4.896886	6405.439444	563.352009
1.908223	4.896886	6932.146667	563.352009
1.929242	4.896886	7468.562778	563.352009
2.028114	4.547392	8543.822222	563.352009
2.077125	4.896886	10140.934444	563.352009
2.140748	4.547392	11553.577778	563.352009
2.212365	4.197331	13483.219444	563.352009
2.196441	4.547392	12196.791667	563.352009
2.246678	4.547392	12196.791667	563.352009
2.296704	4.547392	14257.503333	563.352009
2.402303	4.197854	15558.494444	563.002209
2.506251	4.547392	16932.302222	563.352009
2.525164	4.197854	17546.389444	563.002209
2.642743	4.197854	18978.450556	563.002209
2.651945	4.197854	18954.178333	563.002209
2.683471	4.197854	19633.800556	563.002209
2.806420	4.197854	23315.896667	563.002209
2.849983	4.197854	24044.063333	563.002209
2.931961	4.197854	25107.186667	563.002209
2.943286	4.197854	24238.241111	563.002209
2.951329	4.547957	23211.526111	563.002209
3.054711	4.547957	25813.508333	562.652366
3.110051	4.198376	28233.448889	562.652366
3.222522	4.547957	29417.933333	562.652366
3.200145	4.198376	28498.016111	562.652366
3.268457	4.198376	29221.328333	562.652366
3.321426	4.198376	32823.326111	562.652366
3.396998	4.198376	33983.538333	562.652366
3.422976	4.198376	34102.472222	562.652366
3.463192	4.198376	37488.447222	562.652366
3.517589	4.198376	36029.686667	562.652366
3.472302	4.548523	30138.818333	562.652366
3.594333	4.548523	36073.376667	562.302480
3.673650	4.198898	39221.483889	562.302480
3.616481	4.548523	35032.098333	562.302480
3.649547	4.198898	36903.486667	562.302480
3.788041	4.198898	40998.210556	562.302480
3.741683	4.198898	39871.979444	562.302480
3.813502	4.198898	40646.263333	562.302480
3.849179	4.198898	40930.248333	562.302480
3.927669	4.549088	42007.935000	562.302480
3.937787	4.549088	40092.856667	562.302480
3.837524	3.849229	38391.373889	562.302480
3.863276	4.549088	39003.033889	561.952550
3.930932	4.549088	41947.254444	561.952550
3.981767	4.199420	43350.188889	561.952550
3.963711	4.199420	40071.011667	561.952550
4.048749	4.549654	40287.034444	561.952550
4.072692	4.199420	41185.106667	561.952550
4.052296	4.549654	38131.661111	561.952550
4.062369	4.549654	37381.649444	561.952550
