power (mW)	FWHM	peak value	peak location
-0.004811	55.246964	80.098333	0.000000
-0.003655	96.455606	69.418556	0.000000
0.003245	62.344395	89.807222	0.000000
0.009553	123.856209	75.729333	0.000000
0.016868	56.353961	82.525556	0.000000
0.041471	68.939599	79.127444	0.000000
0.068027	114.183288	73.302111	0.000000
0.100149	56.402613	96.118000	0.000000
0.141437	16.037412	76.214778	0.000000
0.190448	129.350978	88.836333	0.000000
0.234624	132.855720	73.302111	0.000000
0.305738	17.041208	77.185667	0.000000
0.343368	15.363284	81.554667	0.000000
0.386626	23.289295	105.341444	0.000000
0.481346	52.015233	97.574333	0.000000
0.559138	17.075783	93.690778	0.000000
0.696289	151.240519	101.943333	0.000000
0.699248	23.039048	103.399667	0.000000
0.730157	9.782774	165.536556	0.000000
0.949421	4.892615	383.501111	565.799385
1.033495	4.193670	977.199667	565.799385
1.139377	4.542859	1207.785778	565.799385
1.247021	3.494725	2297.123111	565.799385
1.359918	4.193670	3294.226000	565.799385
1.523062	3.843958	4409.291889	565.799385
1.539196	4.193670	5413.191000	565.799385
1.609450	3.494725	8187.506000	565.799385
1.933943	3.844438	10359.869889	565.799385
1.935675	3.494725	10477.832889	565.799385
1.994250	3.844438	10904.538556	565.799385
2.361691	3.844438	17404.639667	565.799385
2.419165	3.844438	17726.003889	565.799385
2.554218	3.844438	19848.852444	565.449891
2.867903	3.844438	22985.309000	565.449891
2.858800	3.844438	19516.323000	565.449891
2.976066	3.495162	25318.840444	565.449891
3.273671	3.495162	31614.569444	565.449891
3.423729	3.495162	32162.150778	565.449891
3.697568	3.844918	31608.258667	565.449891
3.818419	3.844918	34524.808889	565.449891
3.849869	3.844918	32456.815556	565.100353
4.243625	3.844918	35474.338222	565.100353
4.429509	3.495598	31826.223222	565.100353
4.442772	3.495598	31352.429444	565.100353
4.613138	3.495598	33137.408667	565.100353
4.752146	3.845397	32644.197111	565.100353
5.187345	3.495598	38418.558778	565.100353
5.191819	3.845397	34224.318778	565.100353
5.332082	3.845397	32309.240444	564.750771
5.581550	3.845397	32831.093222	564.750771
5.902853	3.496034	33244.691889	564.750771
6.002200	3.496034	29692.209444	564.750771
6.398494	3.496034	29158.220556	564.750771
6.477120	3.496034	28171.797444	564.750771
6.654990	3.496034	27048.964444	564.750771
6.837298	3.496034	25880.985111	564.750771
6.905943	3.496034	22011.992889	564.750771
7.243984	3.845877	20576.533667	564.750771
7.408865	4.195240	20101.769000	564.750771
7.588787	3.845877	19274.571667	564.750771
7.669227	3.845877	19840.114444	564.750771
7.757214	3.845877	19046.412778	564.750771
8.122765	3.845877	17395.416222	564.750771
8.622708	3.845877	17234.734111	564.750771
8.637977	3.845877	15418.686444	564.401146
8.803912	3.845877	13951.673333	564.750771
9.094569	4.195763	20378.472333	564.401146
9.117026	4.546260	50289.617222	564.051477
9.074265	4.896277	61965.527000	563.701765
9.158506	5.595744	64857.319556	563.701765
9.446788	5.595047	64973.826222	564.051477
9.915248	5.595047	64973.826222	564.051477
9.804263	5.595047	64973.826222	564.051477
9.912184	5.595047	64973.826222	564.051477
10.091846	5.595047	64973.826222	564.051477
10.691147	5.945108	64973.826222	564.051477
10.416584	5.945108	64973.826222	563.701765
10.546880	5.945108	64973.826222	564.051477
10.765198	5.945108	62115.529333	563.701765
11.035636	6.295211	64973.826222	563.701765
11.111477	5.945108	64973.826222	563.701765
11.379714	5.945108	64973.826222	563.701765
11.478667	5.945108	64973.826222	563.701765
11.715718	5.595744	64872.853778	563.701765
11.987496	4.896277	61886.399556	563.701765
11.949478	4.896277	60133.945111	563.701765
12.080256	4.896277	57960.610333	563.701765
11.766817	4.896277	56662.531889	563.701765
12.287473	4.896277	57645.556889	563.701765
12.089524	4.896277	55072.701333	563.701765
12.402568	4.546260	55561.058444	563.701765
12.273225	4.546826	53928.508778	563.701765
12.452498	4.896277	55251.344889	563.701765
12.440474	4.546260	49539.605556	563.701765
12.585178	4.546260	53224.128889	563.701765
12.962952	4.896277	53374.131222	563.701765
12.764880	4.896277	53679.961222	563.701765
12.792065	4.896277	54214.435556	563.701765
12.676600	4.546826	50339.132556	563.701765
13.248323	4.896277	52229.938667	563.701765
12.855991	4.546826	50845.936556	563.701765
13.146053	4.546826	47738.121222	563.701765
12.907166	4.196809	45411.871444	563.701765
12.916604	4.546826	43180.283333	563.701765
13.014536	4.546826	42330.755556	563.352009
