power (mW)	FWHM	peak value	peak location
-0.015740	51.968386	199.032222	0.000000
-0.013621	64.466077	169.905556	0.000000
-0.011643	27.767196	174.760000	0.000000
-0.013870	16.324834	182.041667	0.000000
-0.017978	154.865831	189.323333	0.000000
-0.018390	35.254142	177.187222	0.000000
-0.021513	104.177046	167.478333	0.000000
-0.022548	47.051397	179.614444	0.000000
-0.024873	88.914335	172.332778	0.000000
-0.020034	59.735156	191.750556	0.000000
-0.019273	43.982721	184.468889	0.000000
-0.006364	10.122648	177.187222	0.000000
-0.005390	53.250643	191.750556	0.000000
0.017247	4.898105	254.858333	0.000000
0.018619	43.404955	223.304444	0.000000
0.039190	30.971750	298.548333	0.000000
0.039704	6.614552	305.830000	0.000000
0.047980	33.811181	320.393333	0.000000
0.085755	19.185998	429.618333	566.498243
0.106710	38.301236	466.026667	568.244624
0.138896	32.400589	570.397222	566.847607
0.172562	30.983531	626.223333	567.546203
0.182942	43.805241	650.495556	574.522524
0.223217	31.353460	757.293333	567.895435
0.245988	38.272114	769.429444	571.385351
0.274383	40.679045	822.828333	569.989910
0.303814	38.977830	919.917222	569.291927
0.345110	40.704911	1002.442778	569.989910
0.380099	48.972928	1033.996667	571.385351
0.419104	37.931421	1184.484444	569.640940
0.450497	38.286683	1179.630000	569.989910
0.483104	43.805241	1303.418333	567.546203
0.514351	36.207577	1388.371111	569.989910
0.558229	36.544134	1451.478889	570.338836
0.595431	36.885140	1565.558333	570.338836
0.643237	38.982773	1650.511111	568.593768
0.679475	40.704911	1762.163333	567.895435
0.749298	40.710079	1881.097222	0.000000
0.793981	38.286683	2060.711667	567.895435
0.880072	37.249625	2254.889444	566.498243
0.897899	38.632279	2267.025556	567.895435
0.963293	33.093172	2623.827222	565.100353
1.031169	36.553398	2679.653333	565.799385
1.080230	32.392401	3138.398333	564.401146
1.125782	28.577380	3487.918333	564.051477
1.181197	24.410782	3987.926111	563.701765
1.282097	20.934104	4718.520000	563.701765
1.323797	11.880560	6026.792778	563.701765
1.422414	10.136588	6750.105000	563.352009
1.463819	6.295995	7347.201667	563.352009
1.500308	7.692228	7718.566667	563.701765
1.566061	6.644531	8847.225000	563.352009
1.614016	6.645358	9742.870000	563.352009
1.634868	5.596441	10687.059444	563.352009
1.717683	5.596441	11750.182778	563.352009
1.785949	5.596441	13070.591667	563.352009
1.921261	5.246990	17900.763889	563.002209
1.943855	5.246990	18024.552222	563.002209
2.032598	4.897496	20585.271667	563.002209
2.147846	4.897496	24633.878333	563.002209
2.276351	4.897496	27150.907778	563.002209
2.292835	4.897496	30082.992222	563.002209
2.349561	4.197854	34015.092222	563.002209
2.407070	4.547957	36769.989444	563.002209
2.400397	4.197854	37036.983889	563.002209
2.466759	4.547957	39986.058889	563.002209
2.594771	4.547957	39585.567222	563.002209
2.595112	4.547957	36107.357778	563.002209
2.663973	4.547957	37566.118333	562.652366
2.756033	4.547957	42282.211111	562.652366
2.911555	4.898105	49078.433333	562.652366
2.916939	4.898105	46311.400000	562.652366
2.931637	4.547957	50158.547222	562.652366
2.984220	4.898105	49787.182222	562.652366
3.049211	4.898105	53428.015556	562.652366
3.153323	4.548523	56889.234444	562.652366
3.182786	4.898105	59435.390556	562.652366
3.267799	4.548523	58826.157778	562.652366
3.389708	5.248295	58665.961111	562.302480
3.442493	5.248295	61544.646667	562.302480
3.450491	4.898714	62857.773889	562.302480
3.449957	4.898714	61335.905556	562.302480
3.484807	4.898714	61170.854444	562.302480
3.621855	4.898714	63736.428333	562.302480
3.632571	5.248948	63964.587222	562.302480
3.667153	5.598529	64911.203889	562.302480
3.740737	5.598529	64979.166111	562.302480
3.806510	5.598529	64979.166111	562.302480
3.898675	5.948807	64979.166111	562.302480
3.908915	5.948807	64979.166111	561.952550
3.996828	5.599225	64979.166111	561.952550
4.016764	5.599225	64979.166111	561.952550
4.053630	5.599225	64979.166111	561.952550
4.027752	5.599225	64979.166111	561.952550
4.132625	5.599225	64979.166111	561.952550
4.185254	5.599225	64685.472222	561.952550
4.212688	4.549654	51656.143333	561.952550
4.255283	120.704191	160.196667	0.000000
4.254474	29.628472	172.332778	0.000000
4.187146	156.921748	186.896111	0.000000
4.274755	89.212817	196.605000	0.000000
4.241384	58.282324	184.468889	0.000000
4.308038	57.322620	148.060556	0.000000
4.381595	111.227525	165.051111	0.000000
4.300172	29.233664	208.741111	0.000000
