power (mW)	FWHM	peak value	peak location
-0.276630	113.782098	160.196667	0.000000
-0.235627	141.152536	152.915000	0.000000
-0.221196	65.667821	157.769444	0.000000
-0.220225	106.223772	152.915000	0.000000
-0.197746	127.583643	145.633333	0.000000
-0.003209	48.961051	174.760000	0.000000
0.115291	45.083425	189.323333	0.000000
0.224007	94.834581	186.896111	0.000000
0.253077	13.301433	157.769444	0.000000
0.363944	44.363995	208.741111	0.000000
0.559939	44.363995	208.741111	0.000000
0.616205	82.384032	191.750556	0.000000
1.249286	50.757952	189.323333	0.000000
1.320608	39.633520	211.168333	0.000000
1.340588	8.385238	240.295000	0.000000
1.845388	23.410088	213.595556	0.000000
2.053110	12.604488	223.304444	0.000000
2.199914	19.205270	233.013333	0.000000
2.344638	19.205270	233.013333	0.000000
2.461749	49.540186	235.440556	0.000000
2.674048	22.685708	235.440556	0.000000
2.932206	17.103736	283.985000	0.000000
3.938405	8.031331	286.412222	0.000000
4.034219	17.786191	286.412222	0.000000
4.196982	4.196809	330.102222	0.000000
4.679442	9.072633	381.073889	566.498243
5.069070	17.458259	400.491667	0.000000
5.796162	18.502265	383.501111	0.000000
5.904876	18.502265	383.501111	0.000000
6.121060	20.949869	395.637222	566.498243
6.271265	8.735168	497.580556	566.498243
6.665340	18.488333	412.627778	567.546203
8.063179	18.154307	500.007778	566.847607
8.103560	15.709493	470.881111	567.895435
8.131727	31.357421	504.862222	567.196927
8.407023	12.223105	694.185556	566.847607
8.838420	15.009416	623.796111	567.895435
9.318033	16.057583	740.302778	567.196927
10.068296	15.713431	716.030556	567.895435
10.341298	10.126455	699.040000	567.546203
10.437529	10.822116	866.518333	568.244624
10.962591	13.263313	941.762222	567.546203
11.544327	18.850179	800.983333	568.593768
11.752886	4.890169	2788.878333	567.196927
12.437788	9.428081	1276.718889	567.196927
12.705586	10.125186	1310.700000	567.196927
14.019901	6.984205	1691.773889	567.196927
14.490359	10.823473	1254.873889	567.895435
14.949298	10.823473	1254.873889	567.895435
14.989537	7.683586	1774.299444	567.546203
15.615887	7.683586	1932.068889	567.546203
15.710111	6.286572	2750.042778	567.546203
15.956954	6.635410	4686.966111	567.546203
17.181144	5.936947	3771.903333	567.546203
17.764273	5.936947	4012.198333	567.546203
18.242016	5.936947	4012.198333	567.546203
18.543953	6.285785	4592.304444	567.895435
19.212490	5.936204	4410.262778	567.895435
19.532944	6.285785	5720.962778	567.895435
20.141191	6.285785	5720.962778	567.895435
20.445625	5.587365	7388.464444	567.895435
21.149263	6.285785	5907.858889	567.895435
21.523910	6.285785	7490.407778	567.895435
21.673976	5.587365	10687.059444	567.895435
22.931460	6.285785	7184.577778	567.895435
23.425997	5.587365	10451.618889	567.895435
23.849690	4.888945	13713.805556	567.895435
24.857766	5.587365	12611.846667	567.895435
25.058411	5.936204	11531.732778	568.244624
25.450612	5.936204	11531.732778	568.244624
25.822813	5.237827	14437.117778	568.244624
25.979688	4.539451	17624.060556	568.244624
25.966571	6.285785	14412.845556	567.895435
25.926615	5.586666	15837.625000	568.244624
26.166735	5.586666	16451.712222	568.244624
26.310764	4.189475	23061.038333	568.593768
26.723984	4.888333	20429.929444	568.244624
27.280616	5.237827	18284.265000	568.244624
27.347695	5.237827	17944.453889	568.244624
27.766394	4.888333	19145.928889	568.244624
27.738571	5.586666	17000.264444	568.244624
28.094213	5.237827	20048.855556	568.244624
28.454076	4.888333	20709.060000	568.244624
28.361600	4.888333	21036.735000	568.244624
28.650281	4.888333	23412.985556	568.244624
29.388889	4.888333	19155.637778	568.244624
29.387429	4.538882	21818.300556	568.593768
29.961684	4.888333	19301.271111	568.244624
31.379786	4.538882	21626.550000	568.593768
31.911438	4.538882	25507.678333	568.244624
31.675824	5.237171	21830.436667	568.244624
31.783908	4.888333	23218.807778	568.244624
32.266858	4.538882	27689.751111	568.593768
32.016751	4.888333	25849.916667	568.244624
31.734931	4.538882	27034.401111	568.593768
32.083910	5.237171	23808.622778	568.244624
31.816235	5.237171	28262.575556	568.244624
31.474552	4.888333	34197.133889	568.244624
31.201059	5.586666	30189.790000	568.244624
31.167417	5.237171	31760.202778	568.244624
31.297567	5.237171	31473.790556	568.244624
31.935089	4.888333	34325.776667	568.244624
32.102907	5.237171	32592.740000	568.244624
31.426198	4.888333	34590.343889	568.593768
31.739791	5.237171	30981.064444	568.244624
32.053380	5.237171	31417.964444	568.244624
31.193845	5.237171	30192.217222	568.244624
30.389062	5.237171	30192.217222	568.244624
30.676345	4.888333	36056.386111	568.244624
31.567941	4.538882	33155.855556	568.593768
31.452008	4.538882	38976.334444	568.593768
31.291880	5.586666	35874.344444	568.244624
