power (mW)	FWHM	peak value	peak location
-0.052439	95.013455	172.332778	0.000000
-0.055512	52.512798	206.313889	0.000000
-0.065105	72.475055	189.323333	0.000000
-0.059952	71.856659	225.731667	0.000000
-0.062504	123.045025	174.760000	0.000000
-0.060385	136.377215	167.478333	0.000000
-0.044132	102.257162	169.905556	0.000000
-0.026767	72.667108	223.304444	0.000000
-0.017969	109.396098	208.741111	0.000000
-0.010853	71.845401	208.741111	0.000000
-0.002227	87.010855	196.605000	0.000000
0.007678	84.979599	160.196667	0.000000
0.023617	120.766064	172.332778	0.000000
0.024093	29.170449	213.595556	0.000000
0.062882	77.238715	182.041667	0.000000
0.067964	53.530373	191.750556	0.000000
0.103956	80.050233	220.877222	0.000000
0.117139	80.050233	220.877222	0.000000
0.149304	38.863679	250.003889	0.000000
0.172976	63.325103	218.450000	0.000000
0.177270	9.089679	182.041667	0.000000
0.207976	10.122648	220.877222	0.000000
0.232658	10.122648	220.877222	0.000000
0.279570	11.871645	235.440556	0.000000
0.313248	16.677490	228.158889	0.000000
0.360418	27.816870	320.393333	0.000000
0.368531	14.996221	288.839444	0.000000
0.457998	14.668630	310.684444	0.000000
0.498881	3.489478	349.520000	0.000000
0.492929	36.983074	298.548333	0.000000
0.547782	58.017369	300.975556	0.000000
0.568139	10.474986	293.693889	0.000000
0.641825	34.792964	371.365000	0.000000
0.688464	24.057518	371.365000	0.000000
0.757437	26.208542	356.801667	0.000000
0.788563	18.156583	412.627778	0.000000
0.863046	59.201182	432.045556	564.401146
0.911202	16.753632	548.552222	564.051477
0.970394	7.693187	665.058889	564.051477
1.012649	5.595047	825.255556	564.401146
1.069586	4.196286	1046.132778	564.401146
1.132287	5.245030	1148.076111	564.401146
1.187538	7.341209	1145.648889	564.401146
1.229945	5.244377	1563.131111	564.401146
1.284301	4.545693	1983.040556	564.401146
1.404404	4.545693	2177.218333	564.401146
1.402605	4.196286	2118.965000	564.051477
1.460749	4.545693	2648.099444	564.401146
1.525932	4.545693	2890.821667	564.401146
1.602294	4.545693	3699.086667	564.401146
1.658491	4.545693	3835.011111	564.051477
1.726003	4.545693	4242.784444	564.401146
1.838166	4.545693	5004.932222	564.401146
1.842554	3.846356	5774.361667	564.401146
1.901513	3.846356	5774.361667	564.401146
1.911018	4.545693	5968.539444	564.051477
1.978381	4.196286	7388.464444	564.401146
2.080446	3.846356	8451.587778	564.401146
2.121995	4.196286	8740.427222	564.401146
2.304370	4.196286	10189.478889	564.051477
2.321983	4.196286	10682.205000	564.051477
2.289120	4.196286	10682.205000	564.051477
2.421235	4.196286	11512.315000	564.051477
2.474648	3.846835	11849.698889	563.701765
2.486158	3.846835	12318.152778	564.051477
2.600825	3.846835	14725.957222	563.701765
2.719629	3.846835	16599.772778	563.701765
2.716387	3.846835	16881.330556	563.701765
2.817548	3.846835	17961.444444	563.701765
2.906035	4.196809	18876.507222	563.701765
2.916409	4.196809	20352.258333	563.701765
2.942136	4.196809	19107.093333	563.701765
2.998570	3.847314	21830.436667	563.701765
3.079784	3.847314	21888.690000	563.701765
3.164339	3.847314	22806.180000	563.352009
3.218053	3.847314	22230.928333	563.352009
3.267795	4.197331	25201.848333	563.352009
3.353275	4.197331	25201.848333	563.352009
3.360598	3.847314	27981.017778	563.352009
3.392780	3.847793	27949.463889	563.352009
3.432222	3.847793	28539.278889	563.352009
3.501653	3.847793	30318.432778	563.352009
3.641270	3.847793	31704.376667	563.002209
3.617346	4.197854	30308.723889	563.002209
3.678155	4.197854	32932.551111	563.002209
3.652304	3.498212	34393.738889	563.002209
3.766013	3.848272	33255.371667	562.652366
3.786687	3.848272	33587.901111	562.652366
3.730550	4.198376	31437.382222	562.652366
3.869367	3.498647	36342.798333	562.652366
3.790377	3.848751	32687.401667	562.652366
3.862189	3.848751	32680.120000	562.652366
3.871258	3.848751	34920.446111	562.302480
3.822821	4.198898	32211.666111	562.302480
3.965599	3.848751	34731.122778	562.302480
4.076199	3.849229	34915.591667	562.302480
4.053502	3.849229	34852.483889	562.302480
4.050674	3.849229	36112.212222	562.302480
4.137771	3.849229	34786.948889	561.952550
4.141892	3.849229	33837.905000	561.952550
4.077338	3.849707	32614.585000	561.952550
4.012791	3.849707	30080.565000	561.952550
4.100179	3.849707	32350.017778	561.952550
4.134623	3.849707	30874.266667	561.602576
4.134843	3.849707	29910.659444	561.602576
