power (mW)	FWHM	peak value	peak location
-0.021484	116.672913	184.468889	0.000000
-0.021906	116.749125	184.468889	0.000000
-0.024235	35.782781	281.557778	0.000000
-0.024072	73.146513	390.782778	0.000000
-0.023264	144.362769	395.637222	0.000000
-0.023800	562.652366	451.463333	0.000000
-0.020882	52.513082	441.754444	0.000000
-0.013381	61.841562	526.707222	0.000000
-0.010422	50.134081	470.881111	0.000000
-0.000196	33.288157	383.501111	0.000000
0.008123	59.853618	436.900000	0.000000
0.020055	50.931620	495.153333	0.000000
0.040912	57.644216	342.238333	0.000000
0.056474	36.170841	361.656111	0.000000
0.083939	57.417526	436.900000	0.000000
0.097746	76.494132	400.491667	0.000000
0.119965	117.453250	444.181667	0.000000
0.141838	18.486008	415.055000	0.000000
0.166700	41.416449	354.374444	0.000000
0.214916	7.657498	424.763889	0.000000
0.225228	26.870383	383.501111	0.000000
0.255900	48.395138	449.036111	0.000000
0.287300	13.241631	449.036111	0.000000
0.299489	13.241631	449.036111	0.000000
0.368396	18.826500	449.036111	0.000000
0.380997	28.216410	371.365000	0.000000
0.426104	17.799608	475.735556	0.000000
0.477308	21.219907	390.782778	0.000000
0.483136	55.174802	398.064444	0.000000
0.536167	12.555778	434.472778	0.000000
0.585020	17.456071	410.200556	0.000000
0.610324	18.122373	458.745000	571.385351
0.703147	13.982354	478.162778	563.701765
0.711316	21.284338	490.298889	563.352009
0.779968	28.230664	623.796111	563.352009
0.842192	9.094209	662.631667	563.352009
0.835033	9.089679	769.429444	563.352009
0.863493	8.741711	987.879444	562.652366
0.981447	4.547957	1563.131111	563.002209
1.028770	5.597137	1618.957222	563.002209
1.079413	4.547957	1832.552778	563.002209
1.106532	4.897496	2063.138889	563.002209
1.192560	4.547957	2776.742222	563.002209
1.226392	4.197854	2844.704444	563.002209
1.345129	4.197854	4291.328889	563.002209
1.344081	4.547957	4347.155000	563.002209
1.428864	4.197854	4876.289444	563.002209
1.449025	4.547957	4854.444444	563.002209
1.553897	3.848272	5774.361667	563.002209
1.570364	4.198376	5555.911667	562.652366
1.683459	4.198376	6619.035000	562.652366
1.729932	4.198376	7136.033333	562.652366
1.716132	4.198376	8111.776667	562.652366
1.849089	4.198376	8029.251111	562.652366
1.892636	4.198376	9012.276111	562.652366
1.958704	4.198376	10735.603889	562.652366
2.036182	4.198376	11949.215000	562.652366
2.117253	4.198376	12320.580000	562.652366
2.160315	3.848751	13094.863889	562.652366
2.209732	3.848751	14034.198889	562.652366
2.265433	3.848751	14793.919444	562.302480
2.396216	3.848751	17014.827778	562.302480
2.361893	3.848751	17014.827778	562.302480
2.501736	4.198898	17408.037778	562.302480
2.521099	3.848751	19813.415000	562.302480
2.682275	4.198898	21650.822222	562.302480
2.703300	4.198898	20393.521111	562.302480
2.710537	4.198898	21781.892222	562.302480
2.834690	4.199420	22514.913333	561.952550
2.858990	3.849229	23568.327778	562.302480
2.903152	3.849229	22988.221667	561.952550
3.045377	3.849229	27682.469444	561.952550
2.994259	3.849229	29527.158333	561.952550
3.079112	3.849229	29527.158333	561.952550
3.202473	4.199420	32044.187778	561.952550
3.168200	4.199420	30313.578333	561.952550
3.228942	4.199420	33684.990000	561.952550
3.337458	3.849707	32146.131111	561.952550
3.369466	3.849707	30201.926111	561.602576
3.480797	4.199941	32716.528333	561.602576
3.496792	4.199941	33500.521111	561.602576
3.562265	4.199941	32505.360000	561.602576
3.625258	4.199941	33233.526667	561.602576
3.657230	3.850185	34252.960000	561.602576
3.626101	3.850185	32075.741667	561.602576
3.692914	3.850185	34473.837222	561.602576
3.658660	3.850185	31718.940000	561.602576
3.805104	3.850185	37789.422778	561.252560
3.788892	4.200463	37614.662778	561.252560
3.795629	4.200463	36558.821111	561.252560
3.879987	4.200463	37600.099444	561.252560
3.886437	4.200463	37430.193889	561.252560
3.935711	4.200463	36490.858889	561.252560
3.964317	4.200463	36240.855000	561.252560
3.950820	4.200463	37959.328333	561.252560
3.976681	4.200463	36854.942222	561.252560
3.981690	4.200463	36638.919444	561.252560
4.067099	4.200463	39316.145556	561.252560
4.063354	4.200463	35942.306667	561.252560
4.083569	3.850663	36342.798333	561.252560
4.090418	4.200463	35485.988889	561.252560
4.166785	4.200463	33279.643889	561.252560
4.086447	4.200463	29342.689444	561.252560
4.050416	4.200463	28854.817778	561.252560
4.141581	4.200463	29342.689444	561.252560
