power (mW)	FWHM	peak value	peak location
-0.010622	47.898162	199.032222	0.000000
-0.010842	141.730061	174.760000	0.000000
-0.011706	66.678096	169.905556	0.000000
-0.012227	89.481726	179.614444	0.000000
-0.013751	97.769165	194.177778	0.000000
-0.013818	132.262519	172.332778	0.000000
-0.010602	64.902198	174.760000	0.000000
-0.010041	114.452289	189.323333	0.000000
-0.005863	87.582115	169.905556	0.000000
-0.000699	44.087176	191.750556	0.000000
0.012704	123.243764	196.605000	0.000000
0.013712	75.615205	225.731667	0.000000
0.039619	24.792167	237.867778	0.000000
0.060020	27.957485	216.022778	0.000000
0.076094	65.710799	191.750556	0.000000
0.081391	95.285451	274.276111	0.000000
0.092040	112.840657	300.975556	0.000000
0.133266	66.599888	305.830000	0.000000
0.137958	28.883821	288.839444	0.000000
0.193693	37.164423	327.675000	0.000000
0.193705	79.816771	291.266667	0.000000
0.206523	44.076821	308.257222	0.000000
0.222682	36.903849	334.956667	0.000000
0.297533	42.333470	427.191111	571.385351
0.318419	18.476700	417.482222	573.825682
0.345449	13.248313	473.308333	575.567456
0.384763	31.225990	483.017222	573.477195
0.452596	32.371904	497.580556	573.477195
0.456155	27.873349	524.280000	573.825682
0.524838	38.499404	536.416111	574.870879
0.555052	31.329665	589.815000	573.825682
0.596647	35.484291	621.368889	573.825682
0.631689	38.928309	648.068333	573.128664
0.689594	45.534738	703.894444	574.522524
0.741196	41.687488	730.593889	573.477195
0.817869	46.509077	781.565556	574.870879
0.825308	44.770903	871.372778	573.825682
0.887749	41.008425	842.246111	572.780089
0.929862	36.180034	915.062778	572.780089
0.947376	46.853135	949.043889	573.477195
1.033529	38.247800	973.316111	572.780089
1.099522	38.272114	1021.860556	572.780089
1.137005	33.764198	1101.958889	572.780089
1.190856	33.764198	1082.541111	574.174125
1.246698	36.880459	1152.930556	575.567456
1.276759	41.698129	1203.902222	573.477195
1.406459	41.698129	1203.902222	573.477195
1.440689	35.488797	1298.563889	572.780089
1.474876	40.673867	1351.962778	572.431471
1.498359	36.880459	1344.681111	572.780089
1.608668	34.114432	1509.732222	565.799385
1.669872	35.147571	1529.150000	573.825682
1.709975	34.801795	1733.036667	565.449891
1.813399	33.076431	1817.989444	565.100353
1.827982	33.068052	1825.271111	565.100353
1.867539	29.952437	2140.810000	565.100353
1.937271	24.748586	2395.668333	565.100353
2.013474	22.318461	2808.296111	564.750771
2.136961	11.527530	3648.115000	564.750771
2.195031	12.224635	3737.922222	564.750771
2.254582	10.132791	3932.100000	564.750771
2.352001	7.341209	4873.862222	564.401146
2.326572	6.292858	5116.584444	564.750771
2.434101	6.642875	5470.958889	564.401146
2.446942	6.292858	5662.709444	564.401146
2.557690	6.642875	7187.005000	564.401146
2.625331	5.943626	7378.755556	564.401146
2.620992	5.943626	7354.483333	564.401146
2.724951	5.594350	9386.068333	564.401146
2.790955	5.594350	10716.186111	564.401146
2.859718	5.245030	10723.467778	564.401146
2.919034	5.594350	11238.038889	564.401146
3.043248	5.245030	13070.591667	564.401146
3.065203	5.245030	14922.562222	564.401146
3.143562	4.895057	13398.266667	564.401146
3.132646	4.895057	16039.084444	564.401146
3.129056	5.245030	15313.345000	564.401146
3.232079	5.245030	17369.202222	564.401146
3.301448	4.895667	19102.238889	564.051477
3.357007	5.245030	20036.719444	564.051477
3.406011	4.895667	20446.920000	564.051477
3.427099	4.895667	21927.525556	564.051477
3.532470	4.545693	24510.090000	564.051477
3.643920	4.895667	27735.868333	564.051477
3.636623	4.545693	28376.655000	564.051477
3.672715	4.895667	28626.658889	564.051477
3.733342	4.895667	30471.347778	564.051477
3.765283	4.895667	32286.910000	564.051477
3.833505	4.895667	33126.728889	564.051477
3.748932	4.895667	31090.289444	564.051477
3.890528	4.546260	36874.360000	564.051477
3.860543	4.546260	38558.852222	564.051477
3.912511	4.546260	39626.830000	564.051477
4.031841	4.546260	41037.046111	564.051477
4.025332	4.895667	42794.355000	564.051477
3.999308	4.546260	44160.881111	564.051477
3.921354	4.546260	40629.272778	563.701765
4.084008	4.546260	43765.243889	563.701765
4.197598	4.546260	47221.608333	563.701765
4.199864	4.546260	47585.691667	563.701765
4.159270	4.896277	48697.359444	563.701765
4.118696	4.546260	49775.046111	563.701765
4.101365	4.546260	49775.046111	563.701765
4.139633	4.896277	46503.150556	563.701765
4.292333	4.546826	49279.892778	563.701765
