power (mW)	FWHM	peak value	peak location
0.052750	33.721331	140.293444	0.000000
0.051343	22.981064	153.400444	0.000000
0.061944	20.198073	216.993667	0.000000
0.147571	25.416796	287.868556	0.000000
0.176522	29.598545	319.907889	0.000000
0.201347	33.072242	357.287111	574.174125
0.290755	33.388565	493.697000	0.000000
0.340547	31.687793	526.221778	571.734101
0.413189	30.279615	650.495556	571.734101
0.483014	28.559335	749.526222	572.082808
0.580818	28.219975	833.022667	571.385351
0.590515	29.248484	885.450667	571.036557
0.742590	27.866306	1060.210667	571.036557
0.799306	30.641231	1128.172889	571.036557
0.842041	28.566557	1208.756667	571.036557
1.001961	28.562947	1449.051667	570.338836
1.107589	28.913094	1615.559111	569.989910
1.219082	26.829815	1760.221556	569.640940
1.362562	26.829815	1907.796667	569.640940
1.436245	27.873349	2003.429222	569.640940
1.526516	26.833202	2138.382778	569.291927
1.676842	26.489739	2341.298556	568.942870
1.883706	26.489739	2618.972778	568.942870
1.903726	26.139548	2680.138778	568.593768
2.110135	25.448924	3042.280333	567.895435
2.219204	25.795907	3266.555667	567.895435
2.410715	24.407708	3550.540667	567.895435
2.542734	24.060548	3946.177889	567.196927
2.758957	23.018799	4233.075556	566.847607
2.806936	22.671461	4504.924444	566.498243
3.128942	21.629180	5176.294111	566.148836
3.185994	19.540968	5735.526111	565.449891
3.326425	19.193231	6109.803778	565.449891
3.546336	17.453883	7215.646222	565.100353
3.713683	16.407687	7699.148889	565.100353
3.739396	15.015061	8474.403667	565.100353
4.136408	12.923183	9989.475778	564.750771
4.267750	11.528971	9683.645778	564.750771
4.345849	9.436337	12646.313222	564.750771
4.674489	9.436337	13114.281667	564.750771
4.654909	8.737351	13473.510556	564.750771
5.000258	7.690310	16492.004111	564.401146
5.112401	7.341209	17055.119667	564.401146
5.359542	6.992064	19093.500889	564.401146
5.598594	6.642875	20269.732778	564.401146
5.682204	6.642875	21644.026000	564.401146
5.822916	6.293643	23686.776222	564.401146
6.117365	6.293643	24450.865778	564.401146
6.325165	5.943626	25897.004778	564.401146
6.639092	5.943626	27689.751111	564.401146
6.670423	6.293643	27492.175222	564.401146
6.658799	6.293643	27932.958778	564.401146
7.084774	5.944367	33069.446444	564.051477
7.175134	5.944367	31783.989556	564.401146
7.281208	5.594350	32901.482667	564.401146
7.423727	5.944367	34683.063778	564.051477
7.775509	5.944367	36670.473333	564.051477
8.004242	5.944367	36407.362444	564.051477
8.309022	5.944367	38012.241778	564.051477
8.388313	5.944367	40056.933778	564.051477
8.435191	5.944367	39458.866222	564.051477
8.504008	5.944367	41204.039000	564.051477
8.948519	5.944367	43264.750667	564.051477
9.132930	5.944367	43844.371333	564.051477
9.065672	5.595047	42264.249667	564.051477
9.340096	5.944367	41924.438556	564.051477
9.342170	5.944367	44084.180889	564.051477
9.551787	5.595047	44937.592222	564.051477
9.834819	5.944367	45754.595222	564.051477
10.141260	5.944367	45152.644111	564.051477
10.077313	6.643703	41668.123889	564.051477
10.043903	5.944367	45857.994889	564.051477
10.584751	6.643703	42160.850000	564.051477
10.526924	5.944367	43101.155889	564.051477
10.781350	6.643703	42152.597444	564.051477
11.075847	6.643703	43834.177000	564.051477
10.809790	6.293643	42030.265444	564.051477
11.040563	6.293643	42075.411778	564.051477
11.378812	6.643703	42384.639889	564.051477
11.233512	7.342124	38702.543778	564.051477
11.510555	7.342124	38534.094556	564.051477
11.583610	7.342124	35415.114000	564.051477
11.493868	7.342124	37434.562889	564.051477
11.627044	7.691269	38011.270889	564.051477
11.838496	7.341209	37421.455889	564.051477
11.623134	8.738441	35022.389444	564.051477
11.973140	8.737351	35130.643556	564.401146
12.106333	9.086277	35549.096667	564.401146
12.195695	10.482852	33526.735111	564.401146
11.944113	9.785219	33812.661889	564.401146
12.249910	9.436337	34486.458778	564.051477
12.232570	12.226165	32095.159444	564.401146
12.284231	12.226165	31971.371111	564.401146
12.502271	13.271626	32066.032778	564.401146
12.231549	13.968379	30907.276889	564.401146
12.480080	14.664957	30520.863111	564.750771
12.918932	13.618319	32477.689667	564.401146
12.742260	13.618319	31920.884889	564.401146
12.762153	15.013180	30473.289556	564.401146
12.788131	15.361358	30383.967778	564.750771
12.726110	16.405630	28319.372556	564.750771
12.706633	16.405630	27747.033556	564.750771
12.736391	16.055569	28803.846111	564.750771
12.809627	17.101590	27757.227889	564.750771
12.757204	16.751530	27825.675556	564.750771
