power (mW)	FWHM	peak value	peak location
-0.002378	109.533883	203.886667	0.000000
-0.003408	90.940145	169.905556	0.000000
-0.007340	137.155482	174.760000	0.000000
-0.005421	11.491327	157.769444	0.000000
-0.001610	122.697332	194.177778	0.000000
0.011582	57.146299	174.760000	0.000000
0.012756	47.927962	179.614444	0.000000
0.031013	110.916743	162.623889	0.000000
0.043493	31.452074	145.633333	0.000000
0.064761	23.360210	172.332778	0.000000
0.067371	24.729844	199.032222	0.000000
0.095494	18.795594	206.313889	0.000000
0.115298	63.490435	218.450000	0.000000
0.136595	5.210072	211.168333	0.000000
0.157468	38.441146	250.003889	0.000000
0.215435	17.056358	266.994444	0.000000
0.218737	21.198312	296.121111	0.000000
0.249413	6.607840	286.412222	0.000000
0.265121	11.871645	286.412222	0.000000
0.298160	25.812151	298.548333	0.000000
0.307591	7.985709	373.792222	0.000000
0.354836	21.549940	366.510556	0.000000
0.402595	32.512960	373.792222	0.000000
0.404879	65.245338	349.520000	582.176136
0.469560	20.857447	453.890556	572.082808
0.489658	33.759918	415.055000	569.989910
0.493263	17.114453	449.036111	569.291927
0.554897	16.675362	485.444444	568.244624
0.581761	33.759918	487.871667	572.082808
0.686600	33.794117	558.261111	569.640940
0.682362	40.323676	558.261111	568.942870
0.766961	59.247052	589.815000	570.687718
0.803117	29.613518	672.340556	567.895435
0.856696	34.823845	686.903889	563.701765
0.923563	33.759918	740.302778	568.244624
0.931824	32.380107	711.176111	564.401146
1.005336	33.447848	810.692222	566.148836
1.089404	43.471425	798.556111	564.051477
1.076488	26.846739	995.161111	563.002209
1.095494	26.836588	1002.442778	563.701765
1.235625	18.506903	1648.083889	562.652366
1.282560	18.502265	1601.966667	562.652366
1.370090	12.230750	1825.271111	563.002209
1.406191	11.187290	1987.895000	562.652366
1.465024	5.597833	2730.625000	562.652366
1.516562	5.947328	2917.521111	562.652366
1.530785	8.393611	2504.893333	562.652366
1.634947	5.947328	3254.905000	562.652366
1.621436	5.947328	3718.504444	562.652366
1.746125	5.597833	4970.951111	562.302480
1.842539	5.597833	5048.622222	562.652366
1.847200	5.248295	7031.662778	562.302480
1.918000	5.248295	6614.180556	562.652366
2.051590	5.248295	7089.916111	562.652366
2.050598	5.248295	9038.975556	562.302480
2.158758	5.248295	9313.251667	562.652366
2.196058	5.248295	10293.849444	562.302480
2.250825	5.248295	12330.288889	562.302480
2.248341	4.898105	12492.912778	562.652366
2.245285	4.548523	12488.058333	562.652366
2.358402	4.548523	14866.736111	562.302480
2.495835	4.548523	16143.455000	562.302480
2.586974	4.898714	17835.228889	562.302480
2.608831	4.898714	19476.031111	562.302480
2.731620	4.898714	18997.868333	562.302480
2.754930	4.898714	18990.586667	562.302480
2.829758	4.548523	22262.482222	562.302480
2.857367	4.898714	22349.862222	562.302480
2.912703	4.898714	20993.045000	562.302480
2.973674	4.898714	24619.315000	562.302480
3.048667	4.898714	26869.350000	562.302480
3.115227	4.898714	26728.571111	562.302480
3.148101	4.549088	30830.576667	562.302480
3.279993	4.549088	32398.562222	562.302480
3.202293	4.549088	30774.750556	562.302480
3.260051	4.549088	31900.981667	562.302480
3.377958	4.898714	31311.166667	562.302480
3.365781	4.549088	33063.621111	562.302480
3.449716	4.898714	30306.296667	562.302480
3.421130	4.898714	29197.056111	562.302480
3.443564	4.898714	31408.255556	562.302480
3.603216	4.898714	33471.394444	562.302480
3.617145	4.898714	33978.683889	562.302480
3.691942	4.549088	36833.097222	562.302480
3.663516	4.549088	37250.579444	562.302480
3.740691	4.898714	37049.120000	562.302480
3.753715	4.898714	36685.036667	562.302480
3.772343	4.898714	36432.605556	562.302480
3.772910	4.898714	37604.953889	562.302480
3.882368	4.549088	41388.993333	562.302480
3.863238	4.549088	38444.772778	562.302480
3.964727	4.549088	39371.971667	562.302480
4.099336	4.898714	36510.276667	562.302480
4.062294	4.898714	33631.591111	562.302480
4.127181	4.898714	37561.263889	562.302480
3.995481	4.549088	36257.845556	562.302480
4.041849	4.898714	38289.430556	562.302480
3.993660	4.898714	33432.558889	562.302480
4.096834	4.898714	33905.867222	562.302480
4.119315	4.898714	34825.784444	562.302480
4.000029	4.549088	34408.302222	562.302480
4.062486	4.549088	35714.147778	562.302480
4.073756	4.549088	34080.627222	562.302480
4.127457	4.898714	31451.945556	562.302480
4.214863	4.898714	29653.373889	562.302480
