power (mW)	FWHM	peak value	peak location
0.006695	87.119772	424.763889	0.000000
0.006379	22.882610	512.143889	0.000000
0.005885	120.899738	371.365000	0.000000
0.006078	90.741735	439.327222	0.000000
0.006049	41.370318	317.966111	0.000000
0.000352	32.647640	422.336667	0.000000
-0.010891	89.129544	412.627778	0.000000
-0.015948	119.666217	417.482222	0.000000
-0.019726	29.496932	412.627778	0.000000
-0.019407	92.091812	381.073889	0.000000
-0.023003	19.004414	354.374444	0.000000
-0.023255	93.415215	415.055000	0.000000
-0.023791	94.774148	417.482222	0.000000
-0.019634	94.752778	400.491667	0.000000
-0.008573	44.004769	410.200556	0.000000
0.001883	126.322032	453.890556	0.000000
0.004226	13.033434	466.026667	0.000000
0.024791	66.073086	269.421667	0.000000
0.029583	28.934996	427.191111	0.000000
0.035444	30.908712	371.365000	0.000000
0.055183	42.965158	347.092778	0.000000
0.091555	59.947650	424.763889	0.000000
0.092980	95.541942	432.045556	0.000000
0.122620	39.714030	473.308333	0.000000
0.128176	41.645777	453.890556	0.000000
0.178367	32.734484	427.191111	0.000000
0.180870	33.363071	444.181667	0.000000
0.185572	36.841972	402.918889	0.000000
0.238869	31.611345	446.608889	0.000000
0.269184	43.471425	563.115556	0.000000
0.292808	24.237044	395.637222	0.000000
0.326475	31.189887	419.909444	0.000000
0.361438	30.260401	485.444444	0.000000
0.426630	20.568377	422.336667	569.291927
0.436203	26.146140	436.900000	579.395479
0.485344	27.519724	466.026667	567.895435
0.516694	49.909098	509.716667	568.942870
0.559813	37.211822	512.143889	572.431471
0.630404	17.460446	500.007778	568.942870
0.661565	37.230736	645.641111	563.352009
0.707935	29.609777	708.748889	563.002209
0.785534	28.920400	907.781111	563.002209
0.780600	11.536172	968.461667	563.002209
0.856716	21.984936	1179.630000	562.652366
0.898572	6.647012	1432.061111	562.652366
0.943888	7.694145	1567.985556	562.652366
1.003956	6.296779	1813.135000	562.652366
1.110214	5.247643	2262.171111	562.652366
1.109125	5.597833	2383.532222	562.652366
1.177421	5.947328	2733.052222	562.652366
1.232567	5.247643	3361.702778	562.652366
1.334472	5.248295	3987.926111	562.652366
1.327431	4.898105	4291.328889	562.652366
1.415161	5.597833	4645.703333	562.302480
1.421516	4.898105	4793.763889	562.652366
1.582648	4.898105	6356.895000	562.652366
1.570055	4.898105	6517.091667	562.652366
1.656621	5.248295	7866.627222	562.302480
1.695117	4.898105	8087.504444	562.652366
1.740833	4.198376	9534.128889	562.652366
1.793748	4.898105	9832.677222	562.652366
1.881878	4.898105	10762.303333	562.652366
1.861299	4.898105	10640.942222	562.652366
2.039146	4.198376	13708.951111	562.652366
2.020606	4.548523	13184.671111	562.652366
2.145482	4.898105	13837.593889	562.652366
2.212608	4.548523	15325.481111	562.652366
2.200483	4.198376	16769.678333	562.652366
2.329194	4.198376	16769.678333	562.652366
2.384039	4.548523	19056.121667	562.652366
2.455969	4.198376	22517.340556	562.652366
2.578524	4.198376	22655.692222	562.652366
2.539996	4.198376	23386.286111	562.652366
2.658899	4.548523	27034.401111	562.652366
2.790555	4.548523	27854.802222	562.652366
2.841079	4.548523	27845.093333	562.652366
2.916971	4.548523	29558.712222	562.652366
2.855050	4.548523	28143.641667	562.652366
2.991087	4.898105	31803.892778	562.652366
3.053904	4.198376	35828.227222	562.652366
3.096244	4.548523	34641.315556	562.652366
3.140052	4.548523	34335.485556	562.652366
3.200016	4.548523	33903.440000	562.652366
3.236548	4.548523	32733.518889	562.652366
3.282775	4.548523	36422.896667	562.652366
3.315472	4.548523	38289.430556	562.652366
3.379421	4.548523	41289.477222	562.652366
3.412952	4.548523	43420.578333	562.652366
3.433168	4.548523	42872.026111	562.652366
3.527106	4.548523	40789.469444	562.302480
3.555700	4.548523	42168.131667	562.302480
3.606547	4.548523	42845.326667	562.302480
3.576539	4.548523	41745.795000	562.302480
3.666061	4.548523	42495.806667	562.302480
3.710051	4.548523	44719.142222	562.302480
3.751956	4.898714	45685.176667	562.302480
3.747027	4.548523	47918.221111	562.302480
3.738155	4.548523	46214.311111	562.302480
3.795400	4.548523	51991.100000	562.652366
3.845971	4.548523	53330.926667	562.302480
3.997407	4.548523	55889.218889	562.302480
4.031124	4.548523	53112.476667	562.302480
4.075905	4.548523	55148.916111	562.302480
4.104770	4.898714	53323.645000	562.302480
4.105578	4.898714	53964.431667	562.302480
