power (mW)	FWHM	peak value	peak location
-0.026619	97.023546	182.041667	0.000000
-0.023982	133.396081	189.323333	0.000000
-0.023479	155.178726	152.915000	0.000000
-0.020974	86.002263	177.187222	0.000000
-0.021111	152.669813	191.750556	0.000000
-0.019293	44.993119	237.867778	0.000000
-0.016207	47.203196	201.459444	0.000000
-0.012478	24.869465	213.595556	0.000000
-0.000658	75.920424	172.332778	0.000000
0.009739	70.420224	186.896111	0.000000
0.026084	52.991173	186.896111	0.000000
0.028273	64.873335	189.323333	0.000000
0.053729	80.929735	235.440556	0.000000
0.072559	18.094877	206.313889	0.000000
0.101321	26.880498	228.158889	0.000000
0.111738	15.679873	233.013333	0.000000
0.122890	9.413880	269.421667	0.000000
0.169766	23.007207	279.130556	0.000000
0.189707	16.694492	313.111667	0.000000
0.218658	41.242163	305.830000	0.000000
0.232745	23.357267	298.548333	0.000000
0.256549	24.980924	337.383889	0.000000
0.313346	38.783740	441.754444	0.000000
0.346852	39.937839	451.463333	576.263858
0.351810	30.306459	405.346111	576.611992
0.383836	19.883663	439.327222	576.263858
0.423954	29.941067	429.618333	569.640940
0.433202	28.180687	461.172222	572.780089
0.484027	29.730533	497.580556	574.870879
0.510302	32.318448	599.523889	576.960083
0.595878	25.756805	652.922778	574.870879
0.620070	30.979605	589.815000	576.960083
0.651798	31.007057	631.077778	569.989910
0.742729	36.157039	682.049444	565.449891
0.769323	33.430939	694.185556	569.989910
0.775338	42.748701	723.312222	565.100353
0.785849	55.854433	703.894444	564.401146
0.910177	8.039367	992.733889	564.051477
0.933520	11.528971	1296.136667	564.051477
1.046597	19.188410	1742.745556	564.051477
1.064425	8.738441	1956.341111	564.051477
1.127192	7.342124	1866.533889	564.051477
1.192155	6.294427	2186.927222	563.701765
1.227798	5.945108	2645.672222	563.701765
1.314112	5.245684	3577.725556	563.701765
1.344073	4.896277	3652.969444	563.701765
1.441618	5.245684	4114.141667	563.701765
1.438267	4.896277	4458.807222	563.701765
1.569612	4.546260	5796.206667	563.701765
1.606722	4.546826	6796.222222	563.701765
1.614112	4.546826	6781.658889	563.701765
1.748823	4.546826	8286.536667	563.701765
1.776240	4.196809	9395.777222	563.701765
1.859483	4.546826	9820.541111	563.701765
1.905899	4.546826	10339.966667	563.701765
2.020904	4.196809	12199.218889	563.701765
2.041754	4.546826	12094.848333	563.701765
2.087384	4.546826	12968.648333	563.701765
2.182089	4.546826	16274.525000	563.352009
2.238676	4.546826	16728.415556	563.352009
2.253426	4.197331	17420.173889	563.352009
2.319341	4.546826	18376.499444	563.352009
2.445414	4.197331	20053.710000	563.352009
2.500885	4.197331	22796.471111	563.352009
2.525966	4.197331	21789.173889	563.352009
2.531687	4.197331	21141.105556	563.352009
2.564037	4.197331	22997.930556	563.352009
2.779591	4.197331	26488.276111	563.352009
2.861548	4.547392	25840.207778	563.352009
2.869017	4.197331	27808.685000	563.352009
2.993464	4.547392	29294.145000	563.352009
2.985735	4.547392	32267.492222	563.352009
3.090936	4.197331	33619.455000	563.352009
3.066067	4.547392	30927.665556	563.002209
3.169288	4.547392	34000.528889	563.002209
3.173781	4.547392	31209.223333	563.002209
3.279037	4.197854	34007.810556	563.002209
3.264650	4.197854	37277.278889	563.002209
3.376740	4.197854	38456.908889	563.002209
3.417225	4.197854	41274.913889	563.002209
3.427548	4.197854	42874.453333	563.002209
3.515481	4.197854	35981.142222	563.002209
3.489202	4.547957	40857.431667	562.652366
3.543123	4.198376	41257.923333	562.652366
3.604411	4.198376	42816.200000	562.652366
3.675771	4.198376	43748.253333	562.652366
3.681171	4.198376	46947.332222	562.652366
3.788648	4.198376	49605.140556	562.652366
3.793330	4.198376	49226.493889	562.652366
3.794965	4.198376	44954.582778	562.652366
3.850118	4.548523	45000.700000	562.652366
3.837963	4.548523	43731.262778	562.652366
3.899622	4.548523	44500.692222	562.652366
3.951082	4.548523	46461.887778	562.302480
3.967773	4.198898	49080.860556	562.302480
4.029237	4.198898	46777.426667	562.302480
4.035203	4.548523	45313.811667	562.302480
4.021668	4.198898	44257.970000	562.302480
4.125096	4.198898	43046.786111	562.302480
4.152793	4.549088	42386.581667	562.302480
4.124938	4.549088	41631.715556	562.302480
4.073516	4.198898	43522.521667	562.302480
4.108299	4.549088	42078.324444	562.302480
4.031789	4.198898	42915.716111	562.302480
