power (mW)	FWHM	peak value	peak location
0.103546	48.529081	75.243889	0.000000
0.146523	101.218720	76.214778	0.000000
0.166406	119.172640	81.554667	0.000000
0.230983	152.464237	95.147111	0.000000
0.234568	97.753347	92.234444	0.000000
0.256852	27.537099	99.030667	0.000000
0.326772	48.727292	110.195889	0.000000
0.450286	113.192829	131.555444	0.000000
0.513570	20.596837	146.118778	0.000000
0.584697	36.875776	159.225778	0.000000
0.729743	14.311308	208.741111	0.000000
0.734818	16.069653	193.206889	0.000000
0.864112	13.970128	230.586111	0.000000
0.947798	25.120853	243.693111	0.000000
1.054177	18.854905	271.363444	0.000000
1.204288	21.645476	307.286333	0.000000
1.293898	16.071662	363.597889	565.449891
1.345838	18.509221	368.452333	565.799385
1.373963	20.947244	402.918889	565.799385
1.644893	20.944618	448.065222	565.449891
1.747656	20.949869	472.822889	565.449891
1.878440	17.120875	516.998333	565.449891
2.076528	21.645476	579.620667	565.449891
2.107027	17.120875	638.359444	565.449891
2.236743	17.118735	786.420000	564.750771
2.402380	13.626841	939.820444	565.100353
2.587759	11.882044	1130.114667	565.100353
2.739384	9.088545	1391.283778	564.750771
2.957592	8.389428	1660.220000	564.750771
3.016812	6.992064	2087.411111	564.750771
3.247969	6.292858	2621.885444	564.750771
3.471434	5.593653	3212.185889	564.750771
3.702326	5.244377	3668.018222	564.750771
3.657428	5.244377	4329.193556	564.750771
3.851934	4.894447	4831.143111	564.750771
4.002594	4.545127	5808.828222	564.750771
4.250354	4.545127	6188.445778	564.750771
4.396839	4.545127	7889.443111	564.750771
4.661432	4.545127	9621.023444	564.401146
5.017731	4.195763	10170.546556	564.401146
5.107603	4.195763	10425.404889	564.401146
5.191928	4.195763	11167.649444	564.401146
5.538142	4.195763	13151.660889	564.401146
5.615193	4.195763	14576.925778	564.401146
5.834265	4.195763	14844.891111	564.401146
6.035077	4.195763	15356.064111	564.401146
6.037404	4.545693	15351.695111	564.051477
6.302272	4.196286	16744.920667	564.051477
6.646803	4.196286	18182.321667	564.051477
6.679570	3.846356	20683.331444	564.051477
7.002391	3.846356	21874.612111	564.051477
7.341603	4.196286	21824.125889	564.051477
7.430607	4.196286	21744.998444	564.051477
7.610287	4.196286	23498.909222	564.051477
7.539561	3.846835	23858.138111	564.051477
7.899280	3.846835	25100.390444	564.051477
8.111198	4.196809	24865.920778	563.701765
8.301474	4.196809	24604.751667	563.701765
8.230029	4.196809	22499.379111	563.701765
8.540438	4.196809	26868.379111	563.701765
8.797257	3.847314	28211.118444	563.701765
8.713397	3.847314	27855.287667	563.701765
8.998389	3.847314	27719.848667	563.701765
9.345256	4.197331	28218.400111	563.352009
9.548506	4.197331	28488.792667	563.352009
9.831222	4.197331	28891.226111	563.352009
9.874479	4.197331	27986.843111	563.352009
10.135150	4.547392	27396.542667	563.002209
10.187973	3.847793	28944.139556	563.002209
10.364905	4.197854	29044.626556	563.002209
10.463264	4.197854	27293.143000	563.002209
10.549474	4.197854	29004.334667	563.002209
10.962583	4.197854	29174.240222	563.002209
11.058776	4.197854	28194.613333	563.002209
10.957788	4.547957	26575.170667	563.002209
10.899059	4.547957	25878.557889	563.002209
11.054688	4.547957	27024.206778	563.002209
11.126243	4.547957	25663.506000	562.652366
11.505204	4.547957	26618.375222	562.652366
11.775396	4.547957	26566.918111	562.652366
11.996227	4.898105	23435.801444	562.652366
11.919344	4.547957	24129.016111	562.652366
12.099142	4.547957	23168.807000	563.002209
12.089377	4.547957	22996.959667	563.002209
11.950706	4.547957	21525.092111	563.002209
12.248538	4.547957	21617.326556	563.002209
12.218505	4.897496	20655.175667	563.002209
12.418729	4.547957	21066.347111	563.002209
12.666445	4.897496	20426.045889	563.002209
12.463833	4.547392	20667.311778	563.002209
12.311477	4.197854	20369.734333	563.002209
12.647104	4.547392	19603.703000	563.002209
12.330937	4.547392	18631.843222	563.002209
12.637417	4.547392	19040.102000	563.002209
12.403831	4.547392	18667.280667	563.002209
12.753585	4.547392	18755.146111	563.002209
12.653059	4.547392	17727.945667	563.002209
12.820018	4.547392	17199.296667	563.002209
12.819951	4.547392	17654.643556	563.002209
12.828327	4.547392	16324.525778	563.352009
12.720232	4.547392	16133.260667	563.352009
12.864342	4.547392	15994.423556	563.352009
12.781836	4.547392	14300.222444	563.002209
12.797150	4.547392	15710.438556	563.002209
12.960336	4.547392	15458.978333	563.352009
