power (mW)	FWHM	peak value	peak location
-0.042271	66.019435	235.440556	0.000000
-0.045579	57.900620	194.177778	0.000000
-0.033108	27.261967	184.468889	0.000000
-0.028547	81.665686	191.750556	0.000000
-0.027699	20.149357	172.332778	0.000000
-0.026336	136.360888	201.459444	0.000000
-0.029376	84.376585	216.022778	0.000000
-0.022465	5.595047	184.468889	0.000000
-0.018685	72.003425	184.468889	0.000000
-0.014386	45.690644	216.022778	0.000000
0.003167	41.231537	211.168333	0.000000
0.014026	30.730093	167.478333	0.000000
0.030780	11.259175	220.877222	0.000000
0.043861	16.399453	196.605000	0.000000
0.062934	9.102123	203.886667	0.000000
0.080242	33.084804	262.140000	0.000000
0.100735	34.260544	254.858333	0.000000
0.099734	18.486008	250.003889	0.000000
0.147124	13.233266	378.646667	0.000000
0.159593	22.332496	308.257222	0.000000
0.198295	44.655793	337.383889	0.000000
0.217477	25.098733	400.491667	0.000000
0.268376	27.502319	405.346111	0.000000
0.294485	41.374378	407.773333	569.640940
0.319429	21.957286	444.181667	569.640940
0.348403	53.079300	427.191111	570.338836
0.389071	31.603269	580.106111	565.449891
0.434614	39.318347	521.852778	570.687718
0.468256	21.954516	623.796111	570.687718
0.502653	30.340877	621.368889	571.734101
0.552231	29.967579	643.213889	570.338836
0.572982	42.085765	631.077778	570.338836
0.639825	30.656736	740.302778	568.942870
0.706000	28.562947	793.701667	570.338836
0.758161	33.409770	849.527778	570.687718
0.809462	28.920400	873.800000	570.687718
0.867062	25.802408	915.062778	570.687718
0.910956	25.802408	915.062778	570.687718
0.978556	36.539499	900.499444	570.687718
1.047730	30.660609	980.597778	572.082808
1.130727	31.345534	1063.123333	569.989910
1.133116	41.384907	1135.940000	570.687718
1.168661	30.291127	1174.775556	571.036557
1.252222	33.409770	1160.212222	0.000000
1.331476	34.469074	1211.183889	571.036557
1.389674	34.105783	1250.019444	570.687718
1.476239	30.637351	1385.943889	570.338836
1.488140	38.617576	1347.108333	571.734101
1.578616	41.034543	1364.098889	571.734101
1.654576	36.520945	1419.925000	570.687718
1.704678	35.160940	1410.216111	571.036557
1.744752	37.916978	1463.615000	569.989910
1.778731	38.247800	1555.849444	571.036557
1.845551	38.247800	1555.849444	571.036557
1.933538	34.460342	1601.966667	571.385351
2.057045	37.921794	1645.656667	570.687718
2.047609	35.152029	1740.318333	570.687718
2.059744	36.520945	1667.501667	570.687718
2.256169	36.889820	1774.299444	569.989910
2.265806	41.034543	1873.815556	571.036557
2.337948	31.699818	1866.533889	570.687718
2.426103	39.643608	1885.951667	570.687718
2.481103	34.123074	2019.448889	569.291927
2.563994	35.511304	2026.730556	571.036557
2.544991	33.422476	2019.448889	571.036557
2.718955	36.534863	2225.762778	567.196927
2.752887	34.114432	2024.303333	569.291927
2.832749	35.497805	2177.218333	566.847607
2.911484	32.730341	2293.725000	566.847607
2.964292	29.259586	2548.583333	565.799385
2.949506	32.038027	2429.649444	566.148836
3.060877	22.315652	3036.455000	565.449891
3.134828	22.315652	3036.455000	565.449891
3.221196	17.447313	3788.893889	565.100353
3.193922	17.447313	3784.039444	565.100353
3.301722	14.313102	4762.210000	565.100353
3.333870	9.782774	4708.811111	565.100353
3.376911	6.292074	5779.216111	565.100353
3.531239	5.942885	6492.819444	564.750771
3.430505	5.942885	6784.086111	564.750771
3.566165	5.942885	6946.710000	564.750771
3.562533	5.593653	7140.887778	564.750771
3.740375	4.894447	10468.609444	564.750771
3.751951	5.244377	11005.025556	564.401146
3.803360	5.244377	11352.118333	564.401146
3.831162	4.895057	11526.878333	564.401146
3.855285	4.895057	14148.278333	564.401146
3.874544	4.895057	13776.913333	564.401146
3.902776	4.545127	14347.310556	564.401146
3.941429	4.895057	14517.216111	564.401146
3.980319	4.895057	16852.203889	564.401146
4.099624	4.195763	20391.093889	564.401146
4.056963	4.895057	18344.945556	564.401146
4.110670	4.545693	18694.465556	564.401146
4.196024	4.196286	22767.344444	564.401146
4.161898	4.545693	21167.805000	564.051477
4.183092	4.196286	22750.353889	564.051477
4.235473	4.196286	24114.452778	564.051477
4.282917	4.196286	24264.940556	564.051477
4.225056	4.546260	25039.224444	564.051477
4.282795	4.196286	29449.487222	564.051477
4.356458	4.196286	33209.254444	564.051477
4.342771	4.546260	29184.920000	564.051477
4.317825	4.546260	33580.619444	564.051477
4.354522	4.546260	36323.380556	564.051477
