power (mW)	FWHM	peak value	peak location
0.322456	68.807587	138.351667	0.000000
0.323565	103.020954	140.778889	0.000000
0.346183	112.267089	148.060556	0.000000
0.405364	61.930424	169.905556	0.000000
0.452263	27.981893	135.924444	0.000000
0.610169	27.981893	135.924444	0.000000
0.679270	129.788868	165.051111	0.000000
0.698766	129.788868	165.051111	0.000000
0.875681	133.148171	160.196667	0.000000
0.949084	133.148171	160.196667	0.000000
1.023805	46.586350	155.342222	0.000000
1.397826	67.795414	143.206111	0.000000
1.487949	27.383698	140.778889	0.000000
1.531936	43.977204	143.206111	0.000000
1.789678	37.704489	140.778889	0.000000
1.849204	56.913339	150.487778	0.000000
2.197833	3.495598	196.605000	0.000000
2.305924	91.597720	162.623889	0.000000
2.476872	37.955460	152.915000	0.000000
2.636792	10.793519	177.187222	0.000000
3.200979	18.495303	172.332778	0.000000
3.619126	18.495303	172.332778	0.000000
3.798122	12.244478	186.896111	0.000000
4.471929	18.509221	242.722222	0.000000
4.566006	19.178758	206.313889	0.000000
4.624911	3.494289	179.614444	0.000000
5.232739	31.727829	223.304444	0.000000
5.597461	8.037360	237.867778	0.000000
5.894334	13.291518	264.567222	0.000000
6.119950	23.369033	264.567222	0.000000
6.333430	9.436337	250.003889	0.000000
6.755880	16.755734	334.956667	0.000000
7.106242	16.755734	334.956667	0.000000
7.745845	10.121378	266.994444	0.000000
7.858721	24.033241	303.402778	0.000000
8.399041	11.528971	368.937778	0.000000
8.649572	13.635347	325.247778	0.000000
9.035805	13.635347	325.247778	0.000000
9.284802	6.988574	337.383889	0.000000
9.626700	11.533293	410.200556	562.652366
9.985458	5.598529	856.809444	562.302480
10.329712	7.345783	716.030556	562.652366
11.077342	7.345783	716.030556	562.652366
12.039069	12.236857	519.425556	563.352009
12.318109	4.198898	2587.418889	562.302480
12.997329	4.198898	2055.857222	562.652366
13.255141	5.248295	2444.212778	562.302480
13.322438	5.248295	2594.700556	562.652366
14.000127	4.548523	2419.940556	562.302480
15.087922	4.198376	4585.022778	562.652366
15.188867	4.548523	5468.531667	562.302480
15.881407	4.198376	4594.731667	562.652366
16.145179	4.198376	4594.731667	562.652366
16.906615	3.848751	12012.322778	562.302480
16.965448	4.898105	5655.427778	562.652366
18.198996	4.547957	8650.620000	562.652366
18.637903	4.898105	11907.952222	562.652366
19.015238	3.848272	11230.757222	563.002209
19.074007	4.898105	9157.909444	562.652366
19.438518	3.848272	18082.805556	563.002209
19.799992	4.547957	7055.935000	562.652366
20.369233	4.197854	12565.729444	563.002209
20.726882	4.198376	11412.798889	562.652366
20.713912	4.198376	11412.798889	562.652366
21.512400	4.197854	12133.683889	563.002209
21.839025	4.547957	21218.776667	562.652366
22.454970	4.197854	17383.765556	563.002209
23.949320	4.197854	21988.206111	563.002209
24.100351	4.198376	24158.142778	562.652366
24.249390	3.847793	30328.141667	563.002209
24.763410	3.847793	30328.141667	563.002209
24.664334	4.197854	24291.640000	563.002209
24.687723	4.197854	24291.640000	563.002209
24.777568	4.547392	27112.072222	563.352009
25.659366	4.897496	26005.258889	563.002209
25.800207	4.897496	24036.781667	563.002209
26.113457	3.847793	25463.988333	563.352009
26.606946	4.547392	33267.507778	563.002209
26.885570	4.197854	26995.565556	563.002209
26.777755	4.197854	26480.994444	563.002209
26.817723	4.197854	26480.994444	563.002209
27.171472	4.547392	31333.011667	563.352009
27.606545	4.197854	20937.218889	563.002209
28.071038	3.847793	27704.314444	563.002209
28.135915	3.847793	29342.689444	563.352009
28.803407	4.897496	30461.638889	563.002209
29.123230	4.547392	43913.304444	563.352009
29.385075	4.547392	34723.841111	563.002209
29.412058	4.547392	39029.733333	563.002209
29.842278	4.547392	39029.733333	563.002209
30.328278	4.547392	37498.156111	563.352009
30.795409	3.847793	44840.503333	563.352009
31.482322	4.547392	47102.674444	563.352009
31.264416	4.896886	63568.950000	563.352009
31.589581	3.847314	58811.594444	563.352009
32.125464	4.547392	58699.942222	563.352009
32.214130	4.547392	58699.942222	563.352009
31.753742	4.896886	50160.974444	563.352009
32.253047	4.197331	44473.992778	563.352009
32.161261	4.197331	57347.979444	563.352009
32.574288	4.896886	52682.858333	563.352009
31.328443	4.197331	53539.667778	563.352009
31.665067	4.197331	53539.667778	563.352009
31.545041	4.546826	41034.618889	563.352009
