power (mW)	FWHM	peak value	peak location
-0.025382	71.893426	189.323333	0.000000
-0.036666	71.893426	189.323333	0.000000
-0.031908	47.825231	199.032222	0.000000
-0.031961	47.825231	199.032222	0.000000
-0.032309	47.491040	172.332778	0.000000
-0.030972	125.879664	167.478333	0.000000
-0.029515	119.472312	174.760000	0.000000
-0.014795	45.190044	179.614444	0.000000
-0.007042	109.054990	184.468889	0.000000
0.019561	19.950847	220.877222	0.000000
0.030046	96.178554	191.750556	0.000000
0.031085	28.898467	206.313889	0.000000
0.045868	7.649721	223.304444	0.000000
0.058115	22.521835	245.149444	0.000000
0.080466	21.313691	254.858333	0.000000
0.074516	47.964672	242.722222	0.000000
0.112322	11.145222	293.693889	0.000000
0.134099	29.982701	305.830000	0.000000
0.177045	31.862424	354.374444	0.000000
0.204315	24.033241	383.501111	0.000000
0.258488	34.469074	383.501111	572.780089
0.270187	28.580985	415.055000	572.780089
0.307208	27.495349	463.599444	566.847607
0.337501	20.233767	468.453889	569.291927
0.377836	37.581057	502.435000	566.847607
0.395144	41.745922	524.280000	566.498243
0.419418	41.358572	618.941667	571.385351
0.495315	35.852627	655.350000	571.385351
0.530984	34.118753	689.331111	566.148836
0.585198	36.202991	810.692222	565.799385
0.620735	32.738625	805.837778	564.750771
0.666069	31.345534	949.043889	565.449891
0.729216	31.695811	1070.405000	564.401146
0.773515	27.887420	1235.456111	564.051477
0.794356	28.584589	1184.484444	564.051477
0.848009	15.367132	1652.938333	563.352009
0.890545	17.456071	1655.365556	563.701765
0.926800	18.499945	1946.632222	563.352009
1.005248	7.343954	2677.226111	563.352009
1.049250	6.645358	2740.333889	563.352009
1.102265	5.596441	4029.188889	563.352009
1.156845	5.596441	4335.018889	563.352009
1.214763	4.896886	5315.616667	563.352009
1.268647	5.246990	6196.698333	563.002209
1.351802	4.547392	7560.797222	563.352009
1.431145	4.547392	8706.446111	563.352009
1.510090	4.896886	7888.472222	563.352009
1.516466	4.547392	9262.280000	563.002209
1.512525	4.547392	9645.781111	563.002209
1.564954	4.547392	10109.380556	563.352009
1.606670	4.897496	11570.568333	563.002209
1.775100	4.897496	11966.205556	563.002209
1.787636	4.547392	14539.061111	563.352009
1.907669	4.547392	16463.848333	563.002209
1.927847	4.547392	16721.133889	563.002209
1.985128	4.897496	15842.479444	563.002209
2.129115	4.897496	19806.133333	563.002209
2.203138	4.197854	23983.382778	563.002209
2.262724	4.547392	24505.235556	563.002209
2.243079	4.197854	22662.973889	563.002209
2.320252	4.197854	23206.671667	563.002209
2.441130	4.897496	23978.528333	563.002209
2.438417	4.197854	26396.041667	563.002209
2.542403	4.547957	28381.509444	563.002209
2.601351	4.547957	29432.496667	563.002209
2.634796	4.547957	30629.117222	563.002209
2.689104	4.197854	33328.188333	563.002209
2.752202	4.197854	33163.137222	563.002209
2.855403	4.547957	35058.797778	563.002209
2.854396	4.197854	36036.968333	563.002209
2.874896	4.547957	35235.985000	563.002209
2.993021	4.547957	37507.865000	563.002209
3.033035	4.547957	41192.388333	563.002209
3.208002	4.197854	42687.557222	563.002209
3.137802	4.547957	39155.948889	563.002209
3.191773	4.547957	41272.486667	563.002209
3.409789	4.547957	44282.242222	563.002209
3.334226	4.547957	41369.575556	563.002209
3.280949	4.547957	41129.280556	563.002209
3.505190	4.547957	46881.797222	562.652366
3.421278	4.547957	46182.757222	563.002209
3.497152	4.547957	47444.912778	563.002209
3.514896	4.547957	51228.952222	563.002209
3.679960	4.547957	53995.985556	563.002209
3.635786	4.547957	49326.010000	562.652366
3.569388	4.547957	48925.518333	562.652366
3.710890	4.547957	52245.958333	562.652366
3.803630	4.547957	52148.869444	562.652366
3.793391	4.547957	54110.065000	562.652366
3.860479	4.547957	48991.053333	562.652366
3.812386	4.898105	47978.901667	562.652366
3.895388	4.547957	50772.634444	562.652366
3.924112	4.547957	50131.847778	562.652366
3.941296	4.547957	49690.093333	562.652366
4.061642	4.898105	47864.822222	562.652366
4.138761	4.898105	55976.598889	562.652366
4.115543	4.898105	52287.221111	562.652366
4.133113	4.898105	53182.866111	562.652366
4.078805	4.548523	53338.208333	562.652366
4.116950	4.548523	51687.697222	562.652366
4.116711	4.548523	50680.400000	562.652366
4.196950	4.548523	50321.171111	562.652366
4.097241	4.898105	50000.777778	562.652366
4.156079	4.198376	49643.976111	562.652366
4.281183	4.548523	49651.257778	562.652366
