power (mW)	FWHM	peak value	peak location
-0.021003	41.692810	169.905556	0.000000
-0.019535	88.651435	177.187222	0.000000
-0.020462	107.926808	191.750556	0.000000
-0.019549	36.508787	233.013333	0.000000
-0.021248	69.639855	174.760000	0.000000
-0.017524	57.205018	203.886667	0.000000
-0.012745	33.619821	179.614444	0.000000
-0.000281	87.753950	203.886667	0.000000
0.001185	129.948324	237.867778	0.000000
0.004504	11.136756	194.177778	0.000000
0.023851	87.328525	206.313889	0.000000
0.036528	53.360970	228.158889	0.000000
0.066521	53.360970	228.158889	0.000000
0.066979	15.248561	271.848889	0.000000
0.089849	6.615390	332.529444	0.000000
0.114905	41.167630	313.111667	0.000000
0.131834	14.956445	356.801667	0.000000
0.179566	17.795139	366.510556	0.000000
0.197933	60.975298	402.918889	0.000000
0.233329	32.038027	417.482222	576.611992
0.242505	13.239959	463.599444	576.611992
0.267139	25.009718	458.745000	571.036557
0.303836	27.848677	521.852778	574.174125
0.330125	29.241076	555.833889	576.960083
0.370782	39.958244	606.805556	572.780089
0.411028	40.637568	652.922778	572.780089
0.418636	54.459882	643.213889	577.656131
0.462757	54.102613	672.340556	573.825682
0.496192	42.403871	708.748889	574.174125
0.562136	46.485231	786.420000	576.960083
0.556617	39.958244	820.401111	576.960083
0.607087	41.353299	868.945556	576.611992
0.644504	38.933269	924.771667	577.656131
0.694550	34.101457	983.025000	573.825682
0.738285	43.093485	1043.705556	576.611992
0.834919	34.451604	1148.076111	576.960083
0.843058	34.451604	1148.076111	576.960083
0.913335	34.451604	1220.892778	566.148836
0.931894	40.323676	1371.380556	576.263858
0.997669	40.668687	1400.507222	576.611992
1.093222	35.852627	1436.915556	565.449891
1.112294	37.571516	1560.703889	564.750771
1.170518	35.838988	1878.670000	564.051477
1.230617	29.259586	2140.810000	564.051477
1.315346	28.219975	2371.396111	564.051477
1.370816	11.181706	3111.698889	563.701765
1.410563	24.748586	2907.812222	563.701765
1.467386	21.276314	3296.167778	563.701765
1.535459	20.583914	3203.933333	563.701765
1.604211	6.993807	4728.228889	563.701765
1.605176	16.407687	3997.635000	563.701765
1.660416	6.644531	4672.402778	563.701765
1.715091	6.644531	5145.711111	563.352009
1.831841	5.945848	6703.987778	563.352009
1.830972	5.945848	6485.537778	563.352009
1.889209	5.945848	6592.335556	563.352009
1.998468	5.596441	8944.313889	563.352009
2.130231	5.246990	10684.632222	563.352009
2.149332	4.896886	10873.955556	563.352009
2.170433	5.596441	9412.767778	563.352009
2.301804	4.896886	13332.731667	563.352009
2.323406	5.246990	12405.532778	563.352009
2.371229	5.246990	14063.325556	563.352009
2.429802	5.246990	15179.847778	563.352009
2.508215	5.246990	16330.351111	563.352009
2.598313	5.246990	16303.651667	563.002209
2.651606	4.547392	20041.573889	563.002209
2.657519	4.897496	18660.484444	563.002209
2.758347	4.897496	22056.168333	563.002209
2.739419	4.897496	21342.565000	563.002209
2.889017	4.897496	23330.460000	563.002209
2.932398	4.897496	23704.252222	563.002209
2.997371	4.897496	24228.532222	563.002209
3.025751	4.897496	26680.026667	563.002209
3.096620	4.897496	28403.354444	563.002209
3.140341	4.897496	29131.521111	563.002209
3.157734	4.547957	30102.410000	563.002209
3.274232	4.547957	34687.432778	563.002209
3.319828	4.547957	35357.346111	563.002209
3.366796	4.547957	34352.476111	563.002209
3.378198	4.898105	33692.271667	562.652366
3.366480	4.898105	33243.235556	562.652366
3.490441	4.547957	38520.016667	562.652366
3.531350	4.198376	41155.980000	562.652366
3.583674	4.898105	41330.740000	562.652366
3.623063	4.548523	43049.213333	562.652366
3.652163	4.548523	45665.758889	562.652366
3.700614	4.548523	44364.767778	562.652366
3.583759	4.548523	42641.440000	562.652366
3.780936	4.548523	47675.498889	562.652366
3.917390	4.548523	49049.306667	562.302480
3.894636	4.548523	47969.192778	562.302480
3.901937	4.898714	46697.328333	562.302480
3.842607	4.548523	50017.768333	562.302480
3.907254	4.548523	50576.029444	562.302480
4.004891	4.898714	51231.379444	562.302480
3.992600	4.898714	48995.907778	562.302480
4.060460	4.898714	49228.921111	562.302480
4.058758	4.898714	50585.738333	562.302480
4.055939	4.549088	51753.232222	562.302480
4.002770	4.549088	49005.616667	562.302480
4.053501	4.549088	50860.014444	562.302480
4.088808	4.549088	50571.175000	562.302480
4.134210	4.549088	48631.824444	562.302480
4.094016	4.549088	52789.656111	561.952550
