power (mW)	FWHM	peak value	peak location
3.207272	136.139634	963.607222	542.639873
3.178812	42.179740	936.907778	542.287532
3.202020	135.916156	987.879444	547.216422
3.278357	42.738028	1029.142222	540.172591
3.242612	127.261305	939.335000	541.230253
3.218963	86.610282	958.752778	546.512808
3.253072	70.278232	1033.996667	544.048811
3.248960	145.296327	987.879444	546.512808
3.246473	6.639561	5012.213889	550.029164
3.261198	5.241105	8939.459444	539.114546
3.250325	5.590162	16728.415556	544.400939
3.256026	5.939176	16548.801111	547.216422
3.261718	5.939176	16548.801111	547.216422
3.166574	6.288145	18951.751111	538.761779
3.166512	5.588065	24527.080556	541.582722
3.178552	5.936947	21073.143333	540.877741
3.123908	5.587365	20864.402222	538.761779
3.162129	5.587365	18672.620556	567.895435
3.166322	5.586666	16131.318889	541.935148
3.146229	5.935460	14961.397778	542.639873
3.159804	5.585965	15560.921667	542.287532
3.202182	5.585965	13706.523889	540.877741
3.225364	5.934716	13024.474444	546.160937
3.226577	5.934716	11992.905000	541.935148
3.241454	5.933972	11310.855556	569.291927
3.237173	5.583864	9082.665556	539.114546
3.265721	5.932483	6604.471667	539.819951
3.285629	5.932483	6604.471667	539.819951
3.250037	5.932483	6123.881667	541.230253
3.229036	6.281057	5419.987222	542.992172
3.234110	6.280269	4330.164444	539.467270
3.226325	5.582462	4730.656111	544.400939
3.271774	6.629588	4118.996111	542.992172
3.304572	6.628755	3769.476111	540.525187
3.237719	6.628755	3303.449444	542.287532
3.259905	6.628755	3364.130000	544.048811
3.241292	6.628755	3364.130000	544.048811
3.267177	7.674917	2720.916111	540.525187
3.248996	8.722042	2281.588889	539.114546
3.259643	9.770526	2196.636111	545.809023
3.218784	9.770526	2196.636111	545.809023
3.238725	12.906983	1805.853333	542.639873
3.259734	10.116294	1917.505556	540.172591
3.242056	12.910227	1847.116111	546.160937
3.228051	8.372635	2351.978333	539.114546
3.176539	8.024280	2427.222222	545.457066
3.199320	7.674917	2788.878333	539.114546
3.193402	8.373688	2822.859444	544.400939
3.192531	7.676846	3373.838889	542.639873
3.161268	6.978952	4002.489444	541.935148
3.186166	6.978952	4002.489444	541.935148
3.190645	6.980704	6594.762778	542.287532
3.259842	7.331118	4691.820556	541.935148
3.243053	6.283423	10793.857222	541.582722
3.199480	6.284210	13179.816667	541.582722
3.185016	5.935460	14424.981667	542.287532
3.178749	5.935460	14424.981667	542.287532
3.194137	6.285785	16776.960000	543.696641
3.167167	6.285785	18412.907778	539.467270
3.199426	5.587365	20718.768889	540.525187
3.226703	5.587365	17209.005556	567.895435
3.191624	5.238483	18243.002222	538.408970
3.210730	5.588065	15548.785556	539.819951
3.167301	5.938433	13657.979444	547.568165
3.222644	5.239794	10106.953333	540.525187
3.279774	5.589463	7512.252778	540.172591
3.306279	7.684548	3254.905000	538.761779
3.283572	15.713431	1735.463889	542.992172
3.247614	128.672951	1172.348333	545.457066
3.235591	128.672951	1172.348333	545.457066
3.221108	93.738948	1002.442778	545.457066
3.205900	147.038165	922.344444	543.696641
3.164582	111.181191	966.034444	547.216422
3.148689	96.267857	1012.151667	546.512808
3.184863	155.552297	997.588333	541.935148
3.137009	146.042554	1004.870000	539.467270
3.195403	144.769838	1055.841667	541.230253
3.194964	8.385238	2361.687222	540.172591
3.201105	5.239139	22886.278333	543.344427
3.269036	5.239139	22886.278333	543.344427
3.292640	5.936947	23192.108333	567.895435
3.235834	5.237827	22726.081667	545.457066
3.205397	5.935460	16167.727222	545.105066
3.149299	5.933972	8842.370556	540.172591
3.113996	6.630421	7143.315000	538.761779
3.089109	5.932483	6830.203333	539.819951
3.073594	6.281057	5123.866111	538.761779
3.115872	5.930992	4102.005556	538.408970
3.121205	8.373688	2830.141111	542.992172
3.105484	6.977198	2890.821667	540.525187
3.085660	6.627922	2941.793333	543.344427
3.110729	7.674917	2565.573889	539.114546
3.183022	10.116294	2118.965000	541.582722
3.181740	9.418620	2101.974444	543.696641
3.158709	7.325597	2254.889444	548.623136
3.162759	19.873656	1672.356111	540.525187
3.167840	40.532774	1432.061111	540.525187
3.143222	67.958837	1364.098889	539.467270
3.169187	45.531849	1427.206667	571.734101
3.204607	67.270402	1254.873889	542.992172
3.230815	54.392408	1152.930556	538.761779
3.223201	93.958870	1126.231111	542.639873
3.223398	131.951627	1080.113889	540.172591
3.127015	91.139515	1053.414444	539.114546
3.223920	89.869103	1043.705556	545.105066
3.160738	72.865216	1055.841667	542.992172
