power (mW)	FWHM	peak value	peak location
-0.079904	44.664000	211.168333	0.000000
-0.070679	56.750387	179.614444	0.000000
-0.049952	39.120481	148.060556	0.000000
-0.042684	58.259579	177.187222	0.000000
-0.028401	66.409833	162.623889	0.000000
-0.021858	41.257157	184.468889	0.000000
-0.020458	23.219083	174.760000	0.000000
-0.022287	157.585340	167.478333	0.000000
-0.018900	58.091002	237.867778	0.000000
-0.031542	37.926608	184.468889	0.000000
-0.043588	115.383073	194.177778	0.000000
-0.044320	81.916377	196.605000	0.000000
-0.027465	35.688032	148.060556	0.000000
-0.026143	22.937314	165.051111	0.000000
-0.011789	51.678451	191.750556	0.000000
0.000446	7.303401	174.760000	0.000000
0.038277	53.498038	194.177778	0.000000
0.040982	6.264433	194.177778	0.000000
0.080870	12.213914	240.295000	0.000000
0.078190	46.117614	274.276111	0.000000
0.099337	42.112487	308.257222	0.000000
0.131188	28.872822	305.830000	0.000000
0.188295	18.149755	327.675000	0.000000
0.185851	19.856111	376.219444	0.000000
0.188035	17.436348	351.947222	0.000000
0.232047	31.960752	407.773333	573.477195
0.311683	31.305822	439.327222	575.567456
0.322621	23.315957	470.881111	571.385351
0.350120	14.264425	587.387778	574.522524
0.356277	46.871134	512.143889	0.000000
0.381684	23.310039	582.533333	571.734101
0.430690	37.178660	565.542778	571.734101
0.460344	28.523154	611.660000	573.477195
0.503867	29.274371	691.758333	575.915679
0.562280	32.033972	745.157222	574.522524
0.617712	29.609777	767.002222	571.385351
0.665463	33.734207	864.091111	572.780089
0.740343	28.898467	866.518333	0.000000
0.755060	24.732970	990.306667	570.338836
0.838998	31.663705	1002.442778	567.546203
0.929726	21.962824	1412.643333	566.148836
0.927862	24.392326	1228.174444	566.847607
0.996919	10.823473	1951.486667	566.148836
1.036905	16.393270	2017.021667	566.148836
1.128652	7.336627	2694.216667	565.799385
1.184501	5.241760	3395.683889	565.799385
1.236630	4.892615	4189.385556	565.799385
1.337882	4.892615	4252.493333	565.799385
1.315180	4.892615	4565.605000	565.799385
1.362035	4.892615	4565.605000	565.799385
1.515524	4.543426	7099.625000	565.799385
1.559739	4.543426	7449.145000	565.799385
1.629178	4.193670	10342.393889	565.799385
1.688794	4.543426	8636.056667	565.799385
1.701730	4.193670	9611.800000	565.799385
1.750906	4.193670	11087.551111	565.799385
1.913612	4.193670	11087.551111	565.799385
1.956889	4.543426	13898.274444	565.799385
2.053828	3.844438	16281.806667	565.799385
2.138948	3.844438	17369.202222	565.799385
2.174562	3.844438	18500.287778	565.799385
2.240574	3.844438	20925.082778	565.799385
2.276302	3.844438	23420.267222	565.799385
2.389967	3.844438	24565.916111	565.799385
2.410596	3.844438	24080.471667	565.799385
2.472796	3.844438	25301.364444	565.799385
2.554913	3.844438	27864.511111	565.799385
2.538169	3.844438	30432.512222	565.449891
2.683322	3.844438	33226.245000	565.449891
2.747493	3.844438	34636.461111	565.449891
2.739738	3.844438	30444.648333	565.449891
2.804826	3.844438	34216.551667	565.449891
2.905450	3.844438	39044.296667	565.449891
2.959425	4.194194	37384.076667	565.449891
3.016838	3.495162	39888.970000	565.449891
3.149538	3.844438	44359.913333	565.449891
3.143925	4.194194	44692.442778	565.449891
3.186071	3.844918	46920.632778	565.449891
3.240705	3.844918	46699.755556	565.449891
3.376688	3.495162	53792.098889	565.449891
3.369167	3.844918	54173.172778	565.449891
3.424418	3.844918	53420.733889	565.449891
3.448117	3.844918	54411.040556	565.100353
3.558552	3.844918	54238.707778	565.449891
3.507908	3.844918	55090.662778	565.449891
3.596028	3.844918	56673.211667	565.449891
3.619420	4.194194	60882.015000	565.449891
3.682221	3.844918	58670.815556	565.100353
3.786077	4.194717	59850.445556	565.100353
3.799417	4.194717	60729.100000	565.100353
3.812013	4.194717	60685.410000	565.100353
3.903702	4.194717	62127.180000	565.100353
3.953007	4.194717	57534.875556	565.100353
4.026758	4.194717	60923.277778	565.100353
4.131341	4.544560	62032.518333	564.750771
4.111821	4.544560	63357.781667	565.100353
4.123925	4.544560	64386.923889	564.750771
4.138406	4.544560	64260.708333	564.750771
4.074381	4.544560	63267.974444	564.750771
4.218424	4.544560	64573.820000	564.750771
4.272443	3.845397	53728.991111	564.750771
4.241102	59.040635	167.478333	0.000000
4.257232	127.558176	201.459444	0.000000
4.246086	40.996649	157.769444	0.000000
4.247740	26.030771	152.915000	0.000000
