power (mW)	FWHM	peak value	peak location
-0.047611	18.282734	155.342222	0.000000
-0.004596	27.379944	133.497222	0.000000
0.002619	11.905718	150.487778	0.000000
0.029469	130.300998	179.614444	0.000000
0.032799	119.715143	145.633333	0.000000
0.088857	86.123644	152.915000	0.000000
0.189248	86.123644	152.915000	0.000000
0.274654	28.244899	143.206111	0.000000
0.515467	57.688847	160.196667	0.000000
0.571248	86.518206	138.351667	0.000000
0.761068	96.524957	189.323333	0.000000
0.816155	72.353537	157.769444	0.000000
0.914742	50.480797	160.196667	0.000000
0.982178	50.480797	160.196667	0.000000
1.229443	54.520311	155.342222	0.000000
1.315613	54.520311	155.342222	0.000000
1.812018	56.906044	128.642778	0.000000
1.922815	61.578182	165.051111	0.000000
2.349980	79.412146	140.778889	0.000000
2.488044	15.430243	160.196667	0.000000
2.564084	15.430243	160.196667	0.000000
2.890440	19.903635	140.778889	0.000000
3.357151	81.946155	189.323333	0.000000
3.603654	136.895992	162.623889	0.000000
4.271147	37.052593	138.351667	0.000000
4.357039	86.422195	179.614444	0.000000
4.474080	44.004769	157.769444	0.000000
4.974648	19.891159	167.478333	0.000000
5.057418	15.080487	177.187222	0.000000
5.332016	30.733941	182.041667	0.000000
5.595795	21.990455	191.750556	0.000000
6.150617	26.883868	201.459444	0.000000
6.388033	29.624735	184.468889	0.000000
6.772390	58.927172	225.731667	0.000000
7.560742	8.742800	220.877222	0.000000
7.588702	25.130317	242.722222	0.000000
8.145674	9.084007	242.722222	0.000000
8.536758	21.582825	211.168333	0.000000
8.689327	11.511639	235.440556	0.000000
9.580776	4.547392	728.166667	563.352009
9.689003	26.073373	242.722222	0.000000
10.121512	5.939176	296.121111	0.000000
10.375158	12.918329	303.402778	0.000000
10.536743	47.878898	230.586111	0.000000
11.746706	11.191473	235.440556	0.000000
11.919666	20.254086	298.548333	0.000000
12.030952	6.643703	276.703333	0.000000
12.258932	51.585318	296.121111	0.000000
12.932182	4.896277	820.401111	563.701765
13.622842	4.546826	3388.402222	563.352009
13.954892	4.196809	868.945556	563.701765
14.178777	5.246990	820.401111	563.701765
15.400050	3.497341	1104.386111	563.701765
15.703591	4.896886	1009.724444	563.701765
16.342011	4.896277	1650.511111	563.352009
16.526973	4.547392	2230.617222	563.352009
16.729837	4.896277	980.597778	563.701765
17.106563	5.246990	1531.577222	563.352009
17.460258	6.994678	737.875556	564.051477
18.257826	4.546826	1737.891111	563.352009
18.732662	3.847314	4483.079444	563.701765
19.075252	4.197331	3754.912778	563.352009
19.696192	5.246990	4711.238333	563.352009
20.275995	4.197331	7395.746111	563.352009
20.673670	4.547392	8000.124444	563.352009
21.355036	3.847793	8466.151111	563.352009
21.589469	3.847314	14529.352222	563.352009
21.988327	3.497776	11184.640000	563.352009
22.981970	4.197331	11490.470000	563.352009
23.282522	3.847314	13257.487778	563.352009
23.702820	4.197331	13155.544444	563.352009
23.759296	3.847314	18036.688333	563.701765
24.189303	4.197331	8898.196667	563.352009
24.205256	4.197331	8898.196667	563.352009
24.716442	3.497341	10327.830556	563.701765
24.895912	3.847314	12750.198333	563.701765
24.889340	3.847314	12750.198333	563.701765
25.286595	4.896277	7267.103333	563.701765
25.752680	4.196809	7570.506111	563.701765
25.532816	3.496905	9116.646667	564.051477
26.033937	3.147411	10793.857222	563.701765
26.225694	3.846835	14269.639444	563.701765
26.317555	3.497341	13449.238333	563.701765
26.598888	3.497341	14463.817222	563.701765
26.841172	3.846835	12259.899444	563.701765
27.161561	3.846835	9917.630000	563.701765
27.248630	4.546260	9866.658333	563.701765
28.116133	4.196809	11818.145000	563.701765
28.314621	3.496905	20672.651667	564.051477
28.323094	3.496905	44998.272778	564.051477
28.640229	3.846835	19131.365556	564.051477
28.769266	3.496905	28170.341111	564.051477
29.249858	3.846835	23978.528333	563.701765
29.077730	3.497341	27172.752778	563.701765
29.169093	3.497341	31097.571111	563.701765
29.496700	4.196809	24687.277222	563.701765
29.556364	3.846835	24294.067222	563.701765
30.159912	4.546826	25777.100000	563.701765
30.826070	4.196809	30456.784444	563.701765
30.870816	4.546260	26582.937778	564.051477
30.521655	3.846835	57976.630000	564.051477
30.327728	3.846835	39869.552222	563.701765
30.306566	3.846835	37437.475556	564.051477
30.482162	3.846835	25439.716111	563.701765
30.654214	3.846835	49114.841667	563.701765
30.383163	3.147411	32240.792778	564.051477
29.966883	3.846835	45573.524444	564.051477
30.599903	3.497341	30636.398889	563.701765
