power (mW)	FWHM	peak value	peak location
0.068130	26.332116	88.836333	0.000000
0.081772	103.619619	77.671111	0.000000
0.105767	79.248368	76.700222	0.000000
0.133909	67.374755	71.360333	0.000000
0.171158	31.239665	75.729333	0.000000
0.219689	107.780361	84.467333	0.000000
0.285582	107.701488	77.185667	0.000000
0.427569	93.688578	90.778111	0.000000
0.445180	13.897489	82.525556	0.000000
0.635538	29.278064	83.011000	0.000000
0.770689	13.616613	165.051111	0.000000
0.915608	3.843958	247.091222	0.000000
1.097903	3.843958	425.249333	566.148836
1.363530	3.843958	562.630111	565.799385
1.482404	4.193670	728.652111	565.799385
1.578347	3.494725	927.684333	565.799385
1.922625	3.844438	1398.080000	565.799385
2.177635	3.494725	1821.873000	565.799385
2.469511	3.494725	2136.441000	565.799385
2.766463	3.844438	2498.582556	565.799385
3.087012	3.844438	2799.558111	565.449891
3.303318	3.495162	3100.533667	565.449891
3.702995	3.495162	3229.661889	565.449891
4.101469	3.844918	3514.617778	565.449891
4.409916	3.495162	3902.487889	565.449891
4.603697	3.145842	4231.133778	565.449891
5.362763	3.495598	4015.596444	565.100353
5.574726	3.495598	3786.952111	565.100353
5.907758	3.845397	3883.555556	565.100353
6.353178	3.495598	3952.974111	565.100353
6.580083	3.845397	3750.543778	565.100353
7.214577	3.845397	4085.015000	565.100353
7.730157	3.845397	3824.816778	565.100353
7.871943	3.495598	3719.960778	565.100353
8.544755	3.845397	3605.395889	565.100353
9.020566	3.495598	3576.754667	565.100353
9.466323	3.495598	3184.515556	565.100353
9.817091	3.495598	2972.376333	565.100353
10.068020	3.844918	2541.301667	565.100353
11.085949	3.844918	2881.112778	565.449891
11.749265	3.844918	2716.547111	565.449891
11.614932	3.844918	2758.295333	565.449891
11.675397	3.844918	2407.319000	565.449891
12.904122	3.495598	2453.436222	565.100353
13.863062	3.495598	2479.164778	565.100353
14.078442	3.844918	2233.044444	565.100353
14.341855	3.495598	2224.791889	565.100353
15.175117	3.495598	2161.198667	565.100353
15.352322	3.845397	2758.295333	565.100353
16.037671	3.845877	5007.359444	564.750771
16.935986	4.545127	6175.338778	564.401146
17.160391	4.195240	7844.782222	564.750771
17.770630	4.544560	8577.803333	565.100353
18.255650	4.194717	8996.256444	565.100353
18.512206	4.544560	8895.284000	564.750771
18.753353	4.544560	8195.758556	565.100353
19.932132	3.845397	11078.813111	565.100353
21.008308	4.194717	10505.017778	565.100353
20.837773	4.194717	9274.416111	565.100353
21.407287	4.194717	10525.891889	565.100353
21.658818	4.194717	11468.625000	565.100353
22.917138	4.543993	12446.795556	565.100353
23.036826	4.543993	12771.557889	565.100353
23.518152	4.543993	13421.568000	565.449891
23.953306	4.543993	14163.812556	565.449891
24.143223	4.194194	15259.460667	565.449891
25.435523	4.193670	18225.526222	565.799385
26.102361	3.843958	33001.969667	566.148836
26.421764	3.843958	35760.265000	566.148836
26.927994	4.542859	26409.634111	566.148836
27.322654	4.193146	16789.096111	566.148836
27.915513	4.542859	10823.954778	566.148836
27.365905	4.892615	8188.476889	565.799385
28.542445	4.892615	9158.880333	565.799385
28.637319	4.892615	11395.322889	565.799385
29.574897	4.542859	15604.611667	565.799385
29.779784	4.542859	15515.775333	565.799385
30.416312	4.542859	16399.284222	565.799385
30.938166	4.892615	16700.259778	565.799385
31.685429	4.542859	19348.359222	565.799385
32.203700	4.543426	20296.432222	565.799385
32.225931	4.542291	13274.963778	566.148836
32.798906	4.892615	13969.634778	565.799385
33.071265	5.243069	15355.578667	565.449891
32.809678	4.893836	15531.309556	565.100353
34.251604	4.893836	16072.580111	565.100353
35.088546	4.893836	15145.381222	565.100353
34.559872	4.894447	15008.971333	564.750771
35.003182	5.243723	15538.105778	564.750771
35.539999	5.243723	14507.507222	564.750771
35.834766	4.544560	15174.507889	564.750771
36.243061	4.894447	14189.541111	564.750771
35.612506	4.894447	12688.061444	564.750771
36.241288	4.894447	12827.384000	564.750771
35.638201	4.894447	11788.532889	564.750771
35.748590	4.895057	12634.662556	564.401146
36.637150	4.545693	19370.204222	564.401146
36.642325	5.244377	10313.752667	564.401146
37.033126	5.244377	9179.754444	564.401146
37.085423	5.594350	8856.448444	564.401146
36.240925	5.245030	8935.090444	564.401146
36.836903	5.245030	8701.106222	564.401146
36.800187	5.245030	8686.057444	564.051477
36.494639	5.245030	8138.476111	564.401146
36.355335	5.245030	8507.899333	564.401146
