power (mW)	FWHM	peak value	peak location
77.410566	5.246337	4733.083333	563.352009
75.829867	5.246337	4733.083333	563.352009
76.731155	5.246337	4699.102222	563.352009
75.840682	5.246337	5407.851111	563.701765
76.357188	5.246337	5723.390000	563.352009
78.806578	4.896277	6000.093333	563.701765
78.989926	5.246337	5711.253889	563.701765
76.862046	5.596441	5898.150000	563.352009
76.378550	5.595744	4388.417778	563.701765
76.599873	5.596441	3762.194444	563.352009
76.400314	5.246337	3553.453333	563.701765
76.749839	5.246337	2767.033333	563.352009
74.733945	5.596441	2701.498333	563.352009
77.272585	5.596441	2701.498333	563.352009
76.498394	5.246337	3767.048889	563.352009
77.187899	5.246337	3803.457222	563.352009
78.581611	5.596441	3281.604444	563.352009
77.573088	4.896277	2827.713889	563.701765
75.987971	5.246337	3058.300000	563.352009
76.706149	5.246337	3055.872778	563.701765
78.226189	4.896277	3796.175556	563.701765
77.335932	5.246337	3708.795556	563.352009
77.355042	5.595744	3597.143333	563.701765
78.219309	5.246337	4402.981111	563.352009
78.242965	5.246337	4463.661667	563.701765
79.043355	5.595744	4805.900000	563.701765
77.566819	5.595744	4949.106111	563.701765
76.135300	5.595744	5203.964444	563.701765
75.450144	4.895667	6677.288333	564.051477
76.777890	5.595744	6019.511111	563.701765
77.006809	5.245684	7085.061667	564.051477
77.086984	5.245684	7087.488889	563.701765
77.193446	5.245684	7087.488889	563.701765
75.902312	5.245684	6526.800556	564.051477
76.407753	5.245684	6667.579444	563.701765
78.761560	4.546260	6519.518889	564.051477
77.971281	4.895667	5720.962778	564.051477
78.007521	5.245684	4735.510556	563.701765
78.463351	5.245684	4735.510556	563.701765
77.578059	5.595744	4429.680556	563.701765
76.317106	5.595744	4429.680556	563.701765
77.980076	5.595744	4912.697778	563.701765
77.736797	5.595744	4191.812778	563.701765
78.476302	5.245684	3849.574444	564.051477
77.392236	5.595744	4034.043333	563.701765
76.855533	5.245684	4046.179444	563.701765
76.846359	5.245684	3735.495000	563.701765
77.926449	5.595744	3961.226667	563.701765
78.260526	5.245684	4466.088889	563.701765
76.134741	5.245684	3873.846667	564.051477
76.821173	5.245684	4279.192778	564.051477
78.262622	4.896277	4371.427222	563.701765
