power (mW)	FWHM	peak value	peak location
77.793829	5.946588	2686.935000	563.002209
78.106561	5.946588	2686.935000	563.002209
79.061079	5.596441	3024.318889	563.352009
78.858284	5.246337	2924.802778	563.352009
78.851613	5.596441	3017.037222	563.352009
78.094134	5.246337	2946.647778	563.352009
80.104131	5.946588	2509.747778	563.352009
76.673902	4.896886	2737.906667	563.352009
76.870818	5.246337	2247.607778	563.701765
76.217705	5.246990	2150.518889	563.352009
76.226878	4.896886	2487.902778	563.352009
78.712520	4.896886	2487.902778	563.352009
78.712520	5.596441	2560.719444	563.352009
80.414367	5.596441	2560.719444	563.352009
79.403934	5.595744	3313.158333	563.701765
78.289339	5.945848	3235.487222	563.701765
77.695190	4.546260	3767.048889	564.051477
77.720970	5.245684	3890.837222	564.051477
77.598292	5.595744	3565.589444	563.701765
78.063418	5.245684	4400.553889	563.701765
77.782001	4.546260	3733.067778	564.051477
77.719835	4.896277	3669.960000	563.701765
77.813701	5.245684	3747.631111	563.701765
77.239593	5.245684	3534.035556	564.051477
76.884130	4.546260	3878.701111	564.051477
77.341875	5.595744	3252.477778	563.701765
77.076117	4.896277	3138.398333	563.701765
77.183126	5.245684	3199.078889	563.701765
79.168711	5.245684	3199.078889	563.701765
79.945190	5.595744	2808.296111	563.701765
79.557125	5.595744	2470.912222	563.701765
78.286283	5.595744	2317.997222	563.701765
77.411911	5.945848	2138.382778	563.701765
77.486498	5.945848	2116.537778	563.701765
76.935464	4.895667	2861.695000	564.051477
77.955460	5.246337	2703.925556	563.701765
77.143218	5.945848	2099.547222	563.701765
77.105296	4.546260	2769.460556	563.701765
77.976217	4.546260	2769.460556	563.701765
77.400840	5.595744	2461.203333	563.701765
76.216605	4.896277	2628.681667	563.701765
77.170733	5.246337	2517.029444	563.352009
78.028138	5.595744	3082.572222	563.701765
77.231007	5.245684	2677.226111	563.701765
77.295129	5.595744	2638.390556	564.051477
78.377122	5.595744	2944.220556	563.701765
78.048947	5.595744	2633.536111	563.701765
78.315870	5.595744	3089.853889	563.701765
77.667571	5.595744	3135.971111	563.701765
78.846654	5.595744	3099.562778	564.051477
78.852178	4.895667	3575.298333	564.051477
78.590575	5.595744	2849.558889	563.701765
