power (mW)	FWHM	peak value	peak location
74.632431	4.548523	3956.372222	562.302480
74.639101	4.548523	6281.651111	562.302480
74.691378	4.898714	5740.380556	562.302480
74.475625	4.548523	4873.862222	562.302480
75.140316	4.549088	4279.192778	562.302480
76.282804	3.848272	4475.797778	562.652366
75.142062	4.548523	3818.020556	562.652366
74.591616	4.198898	3735.495000	562.302480
74.614503	4.198898	3735.495000	562.302480
74.460899	4.548523	2446.640000	562.652366
75.245625	4.198376	4662.693889	562.652366
73.562481	4.548523	3194.224444	562.652366
73.622435	4.898105	3563.162222	562.652366
74.207538	4.548523	4735.510556	562.302480
74.091140	4.198376	7201.568333	563.002209
74.869208	3.498647	4150.550000	562.652366
74.282324	4.548523	4543.760000	562.652366
74.745581	4.198376	4555.896111	562.652366
74.848224	4.198376	4555.896111	562.652366
75.146410	4.898105	4019.480000	562.652366
74.716739	4.898105	4019.480000	562.652366
73.950173	4.548523	3946.663333	562.652366
74.965745	3.848751	4466.088889	562.302480
74.430375	4.547957	3883.555556	563.002209
74.199738	4.548523	4048.606667	562.652366
73.762040	4.898105	3439.373889	562.652366
72.670559	4.198898	3235.487222	562.302480
73.894812	4.198376	3288.886111	562.652366
74.446236	5.247643	2951.502222	562.652366
73.518610	5.247643	3915.109444	562.652366
73.206442	4.548523	3359.275556	562.652366
73.674280	4.198376	3077.717778	562.652366
74.420444	5.247643	2895.676111	562.652366
73.344028	4.198898	3752.485556	562.302480
73.944055	3.848272	8352.071667	563.002209
74.528280	3.848272	8352.071667	563.002209
73.179352	3.848272	8325.372222	563.002209
73.231454	4.198376	6711.269444	563.002209
73.508301	4.547392	7713.712222	563.002209
74.173603	4.547957	6512.237222	563.002209
74.031978	4.897496	8745.281667	563.002209
74.131600	4.197854	9611.800000	563.002209
74.454217	4.197854	9611.800000	563.002209
74.038119	4.547957	7121.470000	563.002209
74.399868	4.197854	7978.279444	563.002209
73.704036	4.547957	7359.337778	563.002209
73.030748	4.897496	6818.067222	563.002209
71.863667	4.547957	5866.596111	563.002209
73.329744	4.547957	3818.020556	562.652366
73.397817	4.898105	4558.323333	562.652366
72.754477	5.247643	4225.793889	562.652366
73.687074	4.198376	3101.990000	562.652366
74.698636	4.898105	3815.593333	562.652366
73.673110	5.247643	3296.167778	562.652366
75.168372	4.547957	5245.227222	563.002209
